time (s)	coil I (A)	last det (V)	int current (uC)
9348.883926	1.011918	0.062012	456.374878
9348.884820	1.473245	0.062012	1773.455566
9348.885820	1.468495	0.062012	3241.950439
9348.886729	1.433265	0.062012	4544.788574
9348.887640	1.397292	0.062012	5817.722168
9348.888541	0.947937	0.062012	6671.813477
9348.889495	0.107626	0.062012	6774.488281
9348.890406	0.087678	0.062012	6854.363281
9348.891307	0.087722	0.062012	6933.400879
9348.892232	0.087916	0.062012	7014.723633
9348.893135	0.087946	0.062012	7094.138672
9348.894035	0.087751	0.062012	7173.115234
9348.894927	0.087784	0.062012	7251.418945
9348.895874	0.087971	0.062012	7334.727539
9348.896776	0.087773	0.062012	7413.899414
9348.897678	0.087784	0.062012	7493.081055
9349.896674	1.030020	0.063668	474.838989
9349.897584	1.475273	0.063668	1817.337891
9349.898491	1.470183	0.063668	3150.793945
9349.899445	1.434005	0.063668	4518.834961
9349.900360	1.397853	0.063668	5797.870117
9349.901268	0.998892	0.063668	6704.863770
9349.902222	0.114902	0.063668	6814.480469
9349.903126	0.087839	0.063668	6893.887207
9349.904020	0.087788	0.063668	6972.369629
9349.904905	0.087825	0.063668	7050.094727
9349.905842	0.087927	0.063668	7132.482422
9349.906757	0.087887	0.063668	7212.898926
9349.907654	0.087876	0.063668	7291.723633
9349.908580	0.087766	0.063668	7372.995117
9349.909494	0.087938	0.063668	7453.370605
9349.910396	0.087715	0.063668	7532.489258
9350.954450	1.000759	0.062838	443.336334
9350.955343	1.472981	0.062838	1758.708374
9350.956289	1.470366	0.062838	3149.674805
9350.957201	1.435030	0.062838	4458.422852
9350.958134	1.398798	0.062838	5763.500977
9350.959040	1.013551	0.062838	6681.778320
9350.960009	0.111145	0.062838	6789.478027
9350.960907	0.087638	0.062838	6868.176758
9350.961800	0.087770	0.062838	6946.555176
9350.962728	0.087828	0.062838	7028.060059
9350.963646	0.087759	0.062838	7108.622559
9350.964539	0.087843	0.062838	7187.066406
9350.965427	0.087883	0.062838	7265.106934
9350.966365	0.087902	0.062838	7347.558594
9350.967276	0.087729	0.062838	7427.479980
9350.968193	0.087858	0.062838	7508.045410
9351.966177	1.023219	0.064840	462.494995
9351.967083	1.474321	0.064840	1798.230103
9351.967978	1.470886	0.064840	3114.673340
9351.968942	1.434551	0.064840	4497.580566
9351.969859	1.398439	0.064840	5779.949219
9351.970764	1.018283	0.064840	6701.495117
9351.971679	0.122688	0.064840	6813.754395
9351.972604	0.087806	0.064840	6894.975098
9351.973510	0.087697	0.064840	6974.428223
9351.974408	0.087693	0.064840	7053.176270
9351.975340	0.087784	0.064840	7134.991211
9351.976247	0.087839	0.064840	7214.661621
9351.977148	0.087697	0.064840	7293.676270
9351.978039	0.087814	0.064840	7371.918457
9351.978979	0.087905	0.064840	7454.549316
9351.979881	0.087704	0.064840	7533.658203
9353.028047	1.010698	0.061089	446.728607
9353.029021	1.477815	0.061089	1886.120361
9353.029938	1.468579	0.061089	3232.807617
9353.030842	1.433324	0.061089	4528.532227
9353.031777	1.397032	0.061089	5834.757324
9353.032694	0.961282	0.061089	6716.252930
9353.033595	0.113588	0.061089	6818.595215
9353.034487	0.087708	0.061089	6896.830078
9353.035432	0.087788	0.061089	6979.790039
9353.036329	0.087894	0.061089	7058.631348
9353.037234	0.087843	0.061089	7138.129395
9353.038121	0.087788	0.061089	7215.997559
9353.039076	0.087964	0.061089	7300.002930
9353.039985	0.087722	0.061089	7379.742187
9353.040880	0.087850	0.061089	7458.368164
9353.041811	0.087946	0.061089	7540.245605
9354.039782	1.025405	0.065452	470.661041
9354.040680	1.474376	0.065452	1794.651001
9354.041573	1.471381	0.065452	3108.593750
9354.042518	1.435646	0.065452	4465.278809
9354.043440	1.398669	0.065452	5754.852051
9354.044371	1.006666	0.065452	6692.058105
9354.045263	0.121263	0.065452	6800.225098
9354.046221	0.087708	0.065452	6884.249023
9354.047125	0.087762	0.065452	6963.586426
9354.048040	0.087847	0.065452	7043.966309
9354.048925	0.087781	0.065452	7121.652344
9354.049870	0.087858	0.065452	7204.677734
9354.050763	0.087770	0.065452	7283.056152
9354.051649	0.087784	0.065452	7360.833008
9354.052585	0.087825	0.065452	7443.037109
9354.053488	0.087766	0.065452	7522.290039
9355.100611	0.988363	0.062185	427.961182
9355.101572	1.473593	0.062185	1844.083618
9355.102500	1.469154	0.062185	3207.458496
9355.103407	1.434210	0.062185	4508.287109
9355.104301	1.398940	0.062185	5758.939941
9355.105262	0.968405	0.062185	6689.576660
9355.106160	0.114500	0.062185	6792.397461
9355.107052	0.087770	0.062185	6870.687988
9355.107949	0.087935	0.062185	6949.565430
9355.108891	0.087828	0.062185	7032.299805
9355.109800	0.087953	0.062185	7112.249023
9355.110702	0.087814	0.062185	7191.457031
9355.111633	0.088048	0.062185	7273.429687
9355.112535	0.087971	0.062185	7352.779785
9355.113438	0.087854	0.062185	7432.111816
9355.114327	0.087861	0.062185	7510.220703
9356.111358	1.019081	0.065315	495.273254
9356.112283	1.477584	0.065315	1862.038574
9356.113191	1.468967	0.065315	3195.860840
9356.114085	1.434423	0.065315	4478.234375
9356.115034	1.397450	0.065315	5804.414551
9356.115962	0.959476	0.065315	6694.808594
9356.116869	0.111559	0.065315	6795.992676
9356.117753	0.087781	0.065315	6873.590820
9356.118714	0.087894	0.065315	6958.057129
9356.119632	0.087887	0.065315	7038.737305
9356.120521	0.087821	0.065315	7116.810059
9356.121457	0.087861	0.065315	7199.048340
9356.122353	0.087935	0.065315	7277.837891
9356.123254	0.087828	0.065315	7356.971191
9356.124143	0.087836	0.065315	7435.057129
9356.125079	0.088019	0.065315	7517.442871
9357.171195	1.011248	0.061009	493.488800
9357.172115	1.476541	0.061009	1851.906128
9357.173028	1.469150	0.061009	3193.240234
9357.173924	1.434192	0.061009	4478.276367
9357.174853	1.397996	0.061009	5777.014160
9357.175778	0.984327	0.061009	6687.517090
9357.176677	0.116367	0.061009	6792.131348
9357.177563	0.087762	0.061009	6869.888672
9357.178512	0.087953	0.061009	6953.355957
9357.179421	0.087810	0.061009	7033.175293
9357.180314	0.087825	0.061009	7111.602539
9357.181241	0.087935	0.061009	7193.117676
9357.182145	0.087850	0.061009	7272.534180
9357.183042	0.087891	0.061009	7351.372070
9357.183940	0.087887	0.061009	7430.294434
9357.184875	0.087916	0.061009	7512.496094
9358.178779	1.013979	0.065641	455.276764
9358.179686	1.473735	0.065641	1791.954712
9358.180583	1.471392	0.065641	3111.792969
9358.181512	1.436126	0.065641	4445.953613
9358.182429	1.399937	0.065641	5729.695312
9358.183340	1.050802	0.065641	6686.976074
9358.184229	0.131147	0.065641	6803.566406
9358.185158	0.087729	0.065641	6885.066895
9358.186068	0.087660	0.065641	6964.837402
9358.186967	0.087843	0.065641	7043.808105
9358.187859	0.087847	0.065641	7122.167480
9358.188803	0.087887	0.065641	7205.132812
9358.189705	0.087788	0.065641	7284.317871
9358.190598	0.087861	0.065641	7362.777832
9358.191521	0.087876	0.065641	7443.887207
9358.192431	0.087872	0.065641	7523.851074
9359.247883	1.044346	0.060602	524.261475
9359.248791	1.477196	0.060602	1865.555420
9359.249697	1.468942	0.060602	3196.416504
9359.250595	1.434199	0.060602	4484.327148
9359.251554	1.396648	0.060602	5823.712402
9359.252489	0.939595	0.060602	6702.233398
9359.253385	0.110006	0.060602	6800.798828
9359.254304	0.087777	0.060602	6881.465820
9359.255215	0.087894	0.060602	6961.537598
9359.256122	0.087880	0.060602	7041.244629
9359.257012	0.087854	0.060602	7119.434570
9359.257950	0.087799	0.060602	7201.790039
9359.258844	0.087770	0.060602	7280.256348
9359.259749	0.087828	0.060602	7359.741211
9359.260643	0.087905	0.060602	7438.328613
9359.261591	0.087832	0.060602	7521.593262
9360.250315	0.991143	0.063756	434.120453
9360.251295	1.476859	0.063756	1881.442383
9360.252209	1.468491	0.063756	3223.643311
9360.253115	1.433489	0.063756	4522.384277
9360.254009	1.397783	0.063756	5772.002441
9360.254970	0.956624	0.063756	6691.317871
9360.255871	0.112687	0.063756	6792.848633
9360.256766	0.087708	0.063756	6871.346680
9360.257706	0.087975	0.063756	6954.042969
9360.258609	0.087935	0.063756	7033.447754
9360.259510	0.087865	0.063756	7112.614258
9360.260401	0.087843	0.063756	7190.882324
9360.261352	0.087788	0.063756	7274.368652
9360.262255	0.087891	0.063756	7353.733887
9360.263149	0.087854	0.063756	7432.275391
9360.264033	0.087704	0.063756	7509.805664
9361.318365	1.015027	0.064264	451.686981
9361.319287	1.474790	0.064264	1811.443359
9361.320194	1.470238	0.064264	3144.949219
9361.321089	1.435320	0.064264	4429.560547
9361.322042	1.398534	0.064264	5762.363281
9361.322951	1.025109	0.064264	6694.187012
9361.323838	0.125815	0.064264	6805.785156
9361.324786	0.087773	0.064264	6888.994141
9361.325698	0.087737	0.064264	6969.010254
9361.326593	0.087770	0.064264	7047.563965
9361.327479	0.087821	0.064264	7125.373535
9361.328416	0.087920	0.064264	7207.754395
9361.329318	0.087740	0.064264	7286.896484
9361.330211	0.087806	0.064264	7365.307617
9361.331118	0.087839	0.064264	7444.978027
9361.332048	0.087894	0.064264	7526.719727
9362.320915	1.043840	0.069738	530.270874
9362.321829	1.477555	0.069738	1880.756104
9362.322729	1.468839	0.069738	3202.711426
9362.323627	1.433980	0.069738	4490.424805
9362.324577	1.396805	0.069738	5817.389648
9362.325508	0.944835	0.069738	6697.031250
9362.326405	0.110662	0.069738	6796.294922
9362.327325	0.087711	0.069738	6876.989258
9362.328235	0.087894	0.069738	6956.973145
9362.329143	0.087740	0.069738	7036.641602
9362.330036	0.087854	0.069738	7115.095215
9362.330968	0.087876	0.069738	7196.995605
9362.331868	0.087839	0.069738	7276.050781
9362.332765	0.087836	0.069738	7354.839355
9362.333658	0.087902	0.069738	7433.335449
9362.334596	0.088004	0.069738	7515.883301
9363.392970	0.992889	0.058004	431.906891
9363.393917	1.472516	0.058004	1826.379395
9363.394839	1.469432	0.058004	3181.196045
9363.395761	1.433749	0.058004	4503.112305
9363.396660	1.398669	0.058004	5760.516113
9363.397616	0.974128	0.058004	6691.783203
9363.398511	0.115144	0.058004	6794.836914
9363.399412	0.087656	0.058004	6873.815430
9363.400300	0.087858	0.058004	6951.833008
9363.401258	0.087832	0.058004	7035.976074
9363.402166	0.087843	0.058004	7115.737305
9363.403064	0.087817	0.058004	7194.597168
9363.403996	0.087960	0.058004	7276.576172
9363.404902	0.087876	0.058004	7356.191895
9363.405798	0.087755	0.058004	7434.820312
9363.406685	0.087788	0.058004	7512.688477
9364.390344	0.989879	0.066262	429.607544
9364.391277	1.472490	0.066262	1803.441040
9364.392218	1.469334	0.066262	3186.083984
9364.393126	1.434701	0.066262	4488.792480
9364.394021	1.399263	0.066262	5741.132812
9364.394991	0.979285	0.066262	6691.039062
9364.395895	0.116133	0.066262	6796.022949
9364.396814	0.087737	0.066262	6876.653320
9364.397700	0.087788	0.066262	6954.433594
9364.398640	0.087821	0.066262	7036.985352
9364.399541	0.087751	0.066262	7116.049316
9364.400431	0.087880	0.066262	7194.262207
9364.401361	0.087817	0.066262	7275.932129
9364.402283	0.087814	0.066262	7356.896484
9364.403185	0.087762	0.066262	7436.058105
9364.404076	0.087803	0.066262	7514.290527
9365.465568	1.017418	0.058129	465.977570
9365.466462	1.473570	0.058129	1783.349487
9365.467424	1.469407	0.058129	3196.918701
9365.468333	1.434005	0.058129	4500.429199
9365.469232	1.398483	0.058129	5757.665039
9365.470131	1.000961	0.058129	6657.528809
9365.471095	0.112112	0.058129	6765.604492
9365.471999	0.087638	0.058129	6844.829102
9365.472896	0.087744	0.058129	6923.535645
9365.473826	0.087854	0.058129	7005.239746
9365.474734	0.087839	0.058129	7084.998047
9365.475630	0.087773	0.058129	7163.643066
9365.476519	0.087759	0.058129	7241.660645
9365.477468	0.087876	0.058129	7325.055176
9365.478361	0.087803	0.058129	7403.462891
9365.479261	0.087883	0.058129	7482.557617
9366.464987	1.015005	0.065005	453.707184
9366.465891	1.473933	0.065005	1786.142700
9366.466785	1.470641	0.065005	3100.895508
9366.467737	1.435206	0.065005	4467.211914
9366.468657	1.399036	0.065005	5754.324707
9366.469559	1.039991	0.065005	6692.396973
9366.470498	0.124285	0.065005	6809.100098
9366.471405	0.087708	0.065005	6888.650879
9366.472314	0.087832	0.065005	6968.490234
9366.473204	0.087697	0.065005	7046.540039
9366.474154	0.087821	0.065005	7129.970215
9366.475066	0.087803	0.065005	7210.046387
9366.475973	0.087777	0.065005	7289.660156
9366.476899	0.087817	0.065005	7370.979004
9366.477807	0.087865	0.065005	7450.760254
9366.478715	0.087762	0.065005	7530.448730
9367.534043	1.014500	0.059869	451.452301
9367.534963	1.474409	0.059869	1807.908813
9367.535872	1.470073	0.059869	3144.205322
9367.536809	1.434785	0.059869	4488.599121
9367.537740	1.397787	0.059869	5789.938477
9367.538662	0.988575	0.059869	6701.405273
9367.539554	0.118557	0.059869	6807.158203
9367.540495	0.087825	0.059869	6889.801270
9367.541403	0.087865	0.059869	6969.582520
9367.542297	0.087836	0.059869	7048.107422
9367.543181	0.087806	0.059869	7125.728516
9367.544113	0.087828	0.059869	7207.584473
9367.545027	0.087832	0.059869	7287.862793
9367.545926	0.087817	0.059869	7366.810547
9367.546863	0.087905	0.059869	7449.177734
9367.547775	0.087953	0.059869	7529.390625
9368.535513	1.002975	0.068006	451.338684
9368.536408	1.473226	0.068006	1769.876221
9368.537359	1.470092	0.068006	3167.933350
9368.538267	1.434873	0.068006	4470.797852
9368.539175	1.399197	0.068006	5741.268555
9368.540074	1.046737	0.068006	6682.285156
9368.541021	0.117931	0.068006	6793.965820
9368.541916	0.087667	0.068006	6872.428223
9368.542830	0.087806	0.068006	6952.683105
9368.543716	0.087810	0.068006	7030.482910
9368.544660	0.087751	0.068006	7113.320312
9368.545553	0.087755	0.068006	7191.685547
9368.546445	0.087898	0.068006	7270.090332
9368.547373	0.087942	0.068006	7351.700195
9368.548288	0.087887	0.068006	7432.116699
9368.549186	0.087784	0.068006	7510.947266
9369.606665	1.029360	0.058713	516.738892
9369.607594	1.478075	0.058713	1889.870483
9369.608511	1.468001	0.058713	3236.026855
9369.609409	1.432811	0.058713	4522.691406
9369.610368	1.395480	0.058713	5860.956543
9369.611286	0.913649	0.058713	6699.686035
9369.612187	0.107780	0.058713	6796.795410
9369.613074	0.087711	0.058713	6874.595215
9369.614021	0.087971	0.058713	6957.903809
9369.614923	0.087872	0.058713	7037.164551
9369.615822	0.087898	0.058713	7116.184570
9369.616756	0.087971	0.058713	7198.349609
9369.617661	0.087938	0.058713	7277.933594
9369.618558	0.087843	0.058713	7356.729004
9369.619450	0.087861	0.058713	7435.101074
9369.620406	0.087990	0.058713	7519.219238
9370.611153	1.006176	0.068860	445.735748
9370.612056	1.473376	0.068860	1776.194580
9370.612953	1.470527	0.068860	3095.257568
9370.613919	1.434705	0.068860	4481.182129
9370.614834	1.398552	0.068860	5760.857422
9370.615741	1.027899	0.068860	6693.162109
9370.616678	0.122681	0.068860	6808.113770
9370.617582	0.087751	0.068860	6887.440918
9370.618478	0.087781	0.068860	6966.092285
9370.619366	0.087719	0.068860	7043.986328
9370.620308	0.087799	0.068860	7126.692871
9370.621201	0.087726	0.068860	7205.032227
9370.622105	0.087839	0.068860	7284.438965
9370.622991	0.087894	0.068860	7362.313477
9370.623949	0.087957	0.068860	7446.575684
9370.624854	0.087803	0.068860	7526.037109
9371.675117	1.020699	0.061625	473.604523
9371.676029	1.474596	0.061625	1818.435913
9371.676925	1.470538	0.061625	3136.038086
9371.677891	1.434093	0.061625	4521.372070
9371.678790	1.397725	0.061625	5777.926758
9371.679728	0.971569	0.061625	6689.258301
9371.680626	0.115356	0.061625	6792.848633
9371.681565	0.087631	0.061625	6875.133789
9371.682476	0.087839	0.061625	6955.155273
9371.683401	0.087810	0.061625	7036.379395
9371.684291	0.087810	0.061625	7114.530273
9371.685238	0.087810	0.061625	7197.686523
9371.686155	0.087726	0.061625	7278.131348
9371.687043	0.087821	0.061625	7356.116211
9371.687989	0.087667	0.061625	7439.049316
9371.688884	0.087803	0.061625	7517.632812
9372.685767	0.990696	0.067930	433.924774
9372.686720	1.475830	0.067930	1840.390869
9372.687637	1.469257	0.067930	3187.699219
9372.688550	1.433833	0.067930	4496.788574
9372.689442	1.398270	0.067930	5744.045898
9372.690411	0.971609	0.067930	6685.535156
9372.691314	0.114602	0.067930	6789.020996
9372.692205	0.087719	0.067930	6867.178223
9372.693140	0.087762	0.067930	6949.236328
9372.694038	0.087711	0.067930	7028.000977
9372.694938	0.087715	0.067930	7106.944336
9372.695831	0.087726	0.067930	7185.283691
9372.696769	0.087788	0.067930	7267.628906
9372.697673	0.087686	0.067930	7346.896484
9372.698580	0.087755	0.067930	7426.490234
9372.699468	0.087759	0.067930	7504.419922
9373.743578	1.011061	0.059978	448.911011
9373.744499	1.474442	0.059978	1806.872192
9373.745403	1.470542	0.059978	3136.242187
9373.746335	1.435140	0.059978	4473.792969
9373.747251	1.398838	0.059978	5755.128418
9373.748163	1.030027	0.059978	6694.512695
9373.749050	0.126387	0.059978	6806.617676
9373.750004	0.087876	0.059978	6890.451172
9373.750905	0.087891	0.059978	6969.640625
9373.751805	0.087887	0.059978	7048.738770
9373.752692	0.087858	0.059978	7126.668457
9373.753630	0.087869	0.059978	7209.089355
9373.754543	0.087729	0.059978	7289.186523
9373.755437	0.087847	0.059978	7367.721680
9373.756360	0.087869	0.059978	7448.824219
9373.757271	0.087795	0.059978	7528.805664
9374.759383	1.004506	0.066761	448.009521
9374.760276	1.472805	0.066761	1763.224487
9374.761251	1.469172	0.066761	3195.667480
9374.762162	1.433657	0.066761	4501.729004
9374.763090	1.397604	0.066761	5798.705078
9374.764008	0.959689	0.066761	6679.699219
9374.764934	0.110947	0.066761	6782.436523
9374.765858	0.087729	0.066761	6863.498535
9374.766746	0.087898	0.066761	6941.551758
9374.767692	0.087847	0.066761	7024.654785
9374.768598	0.087836	0.066761	7104.233887
9374.769515	0.087766	0.066761	7184.715332
9374.770402	0.087971	0.066761	7262.745605
9374.771354	0.087770	0.066761	7346.302246
9374.772270	0.087887	0.066761	7426.806641
9374.773160	0.087817	0.066761	7504.963867
9375.816186	1.034868	0.061239	505.015686
9375.817106	1.476936	0.061239	1863.796875
9375.818017	1.468938	0.061239	3201.999512
9375.818912	1.434009	0.061239	4485.437500
9375.819874	1.396666	0.061239	5829.030273
9375.820795	0.949900	0.061239	6703.888184
9375.821689	0.112207	0.061239	6804.201172
9375.822604	0.087836	0.061239	6884.570801
9375.823518	0.087876	0.061239	6964.889648
9375.824420	0.087850	0.061239	7044.130859
9375.825318	0.087861	0.061239	7123.030273
9375.826245	0.087909	0.061239	7204.521973
9375.827153	0.087920	0.061239	7284.353027
9375.828054	0.087876	0.061239	7363.529297
9375.828937	0.087854	0.061239	7441.104492
9375.829885	0.087865	0.061239	7524.400391
9376.829926	1.010317	0.065738	458.684052
9376.830856	1.474702	0.065738	1830.157104
9376.831753	1.469879	0.065738	3148.638672
9376.832695	1.434302	0.065738	4499.750977
9376.833610	1.397758	0.065738	5778.699219
9376.834522	1.005403	0.065738	6695.626465
9376.835412	0.121165	0.065738	6803.462891
9376.836364	0.087836	0.065738	6887.082520
9376.837267	0.087869	0.065738	6966.427734
9376.838172	0.087784	0.065738	7045.872559
9376.839061	0.087880	0.065738	7123.997559
9376.840006	0.087821	0.065738	7206.988281
9376.840911	0.087766	0.065738	7286.416504
9376.841801	0.087814	0.065738	7364.570801
9376.842735	0.087781	0.065738	7446.558105
9376.843643	0.087836	0.065738	7526.312988
9377.887719	1.013181	0.062906	463.023773
9377.888622	1.473838	0.062906	1793.899414
9377.889515	1.470945	0.062906	3107.453125
9377.890477	1.434196	0.062906	4487.149414
9377.891382	1.398157	0.062906	5752.481445
9377.892315	0.998555	0.062906	6684.132812
9377.893209	0.119260	0.062906	6790.751465
9377.894179	0.087715	0.062906	6875.834961
9377.895082	0.087909	0.062906	6955.216797
9377.895973	0.087935	0.062906	7033.566406
9377.896908	0.087913	0.062906	7115.764648
9377.897819	0.087814	0.062906	7195.763184
9377.898748	0.087872	0.062906	7277.396484
9377.899636	0.087861	0.062906	7355.417480
9377.900579	0.087770	0.062906	7438.184570
9377.901467	0.087898	0.062906	7516.237793
9378.900433	1.012061	0.066407	454.415161
9378.901334	1.473420	0.066407	1781.966919
9378.902253	1.470037	0.066407	3132.930664
9378.903212	1.433793	0.066407	4507.937988
9378.904132	1.397468	0.066407	5793.608887
9378.905046	0.989480	0.066407	6697.993652
9378.905994	0.113522	0.066407	6805.612305
9378.906899	0.087865	0.066407	6885.129883
9378.907795	0.087916	0.066407	6963.902832
9378.908678	0.087839	0.066407	7041.464844
9378.909609	0.087850	0.066407	7123.253418
9378.910514	0.087946	0.066407	7202.844238
9378.911411	0.087777	0.066407	7281.580078
9378.912338	0.087920	0.066407	7363.082031
9378.913258	0.087979	0.066407	7444.022461
9378.914166	0.087883	0.066407	7523.820312
9379.961297	0.998115	0.061565	439.170715
9379.962237	1.472688	0.061565	1823.497314
9379.963166	1.468898	0.061565	3188.103271
9379.964084	1.433284	0.061565	4503.857422
9379.964991	1.397875	0.061565	5771.729980
9379.965939	0.971722	0.061565	6692.922852
9379.966842	0.113481	0.061565	6795.396484
9379.967743	0.087693	0.061565	6874.407715
9379.968629	0.087806	0.061565	6952.204102
9379.969570	0.087869	0.061565	7034.888672
9379.970477	0.087850	0.061565	7114.568848
9379.971365	0.087850	0.061565	7192.580078
9379.972295	0.087861	0.061565	7274.291016
9379.973196	0.087762	0.061565	7353.364746
9379.974107	0.087733	0.061565	7433.289551
9379.975009	0.087854	0.061565	7512.533691
9380.970986	1.021238	0.064606	477.939301
9380.971894	1.474999	0.064606	1817.238159
9380.972851	1.468700	0.064606	3222.783936
9380.973764	1.433016	0.064606	4531.127930
9380.974669	1.397530	0.064606	5795.893066
9380.975566	0.994471	0.064606	6687.934082
9380.976507	0.111819	0.064606	6793.155762
9380.977410	0.087660	0.064606	6872.312500
9380.978298	0.087876	0.064606	6950.346191
9380.979213	0.087957	0.064606	7030.826660
9380.980135	0.087836	0.064606	7111.811035
9380.981049	0.087817	0.064606	7192.076172
9380.981939	0.087931	0.064606	7270.334473
9380.982883	0.087902	0.064606	7353.313477
9380.983795	0.087854	0.064606	7433.436523
9380.984693	0.087913	0.064606	7512.381836
9382.033878	1.014218	0.063349	454.369507
9382.034783	1.473867	0.063349	1788.219360
9382.035731	1.469506	0.063349	3181.310547
9382.036645	1.434045	0.063349	4492.028320
9382.037560	1.398314	0.063349	5771.485840
9382.038461	1.002887	0.063349	6675.086914
9382.039418	0.113192	0.063349	6783.411621
9382.040330	0.087616	0.063349	6863.317383
9382.041220	0.087821	0.063349	6941.478027
9382.042158	0.087817	0.063349	7023.850586
9382.043057	0.087898	0.063349	7102.870605
9382.043958	0.087770	0.063349	7181.951172
9382.044851	0.087773	0.063349	7260.333008
9382.045793	0.087788	0.063349	7343.029297
9382.046698	0.087887	0.063349	7422.566895
9382.047600	0.087788	0.063349	7501.751953
9383.042530	1.016634	0.065734	459.518768
9383.043447	1.474039	0.065734	1811.212891
9383.044342	1.470377	0.065734	3127.200439
9383.045278	1.434976	0.065734	4470.337402
9383.046195	1.398325	0.065734	5752.601562
9383.047121	1.011606	0.065734	6689.349121
9383.048014	0.121531	0.065734	6797.875977
9383.048952	0.087795	0.065734	6880.228027
9383.049856	0.087850	0.065734	6959.644531
9383.050756	0.087850	0.065734	7038.709961
9383.051643	0.087905	0.065734	7116.682129
9383.052588	0.088015	0.065734	7199.856445
9383.053497	0.087916	0.065734	7279.772461
9383.054386	0.087825	0.065734	7357.848633
9383.055319	0.087861	0.065734	7439.823242
9383.056225	0.087872	0.065734	7519.435547
9384.108549	1.022421	0.060977	507.120636
9384.109472	1.477701	0.060977	1871.039062
9384.110375	1.468638	0.060977	3197.218750
9384.111267	1.433837	0.060977	4476.201172
9384.112236	1.396553	0.060977	5829.460937
9384.113153	0.944110	0.060977	6695.209961
9384.114050	0.111757	0.060977	6795.455566
9384.114935	0.087620	0.060977	6872.999023
9384.115870	0.087902	0.060977	6955.187012
9384.116779	0.087737	0.060977	7034.939941
9384.117671	0.087832	0.060977	7113.286133
9384.118608	0.087810	0.060977	7195.563965
9384.119514	0.087843	0.060977	7275.149902
9384.120414	0.087722	0.060977	7354.099609
9384.121304	0.087792	0.060977	7432.234375
9384.122256	0.087843	0.060977	7515.860840
9385.112058	1.049733	0.065343	507.020844
9385.112979	1.476387	0.065343	1866.772949
9385.113886	1.469000	0.065343	3199.156250
9385.114778	1.434082	0.065343	4478.357422
9385.115732	1.397263	0.065343	5811.346680
9385.116656	0.975817	0.065343	6713.001465
9385.117555	0.115437	0.065343	6816.779297
9385.118479	0.087817	0.065343	6897.922363
9385.119385	0.087920	0.065343	6977.577637
9385.120278	0.087821	0.065343	7056.001953
9385.121163	0.087843	0.065343	7133.743164
9385.122115	0.087975	0.065343	7217.495117
9385.123019	0.087894	0.065343	7296.951660
9385.123918	0.087891	0.065343	7375.965332
9385.124805	0.087850	0.065343	7453.888672
9385.125763	0.087957	0.065343	7538.150879
9386.181065	0.993113	0.063007	435.976501
9386.181958	1.471787	0.063007	1750.282471
9386.182941	1.468825	0.063007	3194.136963
9386.183849	1.433210	0.063007	4495.492187
9386.184766	1.397637	0.063007	5777.125000
9386.185682	0.968185	0.063007	6663.982422
9386.186638	0.109124	0.063007	6768.304687
9386.187544	0.087627	0.063007	6847.694824
9386.188432	0.087887	0.063007	6925.738281
9386.189371	0.087744	0.063007	7008.129883
9386.190292	0.087854	0.063007	7089.043457
9386.191212	0.087748	0.063007	7169.771484
9386.192100	0.087806	0.063007	7247.743652
9386.193055	0.087803	0.063007	7331.595215
9386.193953	0.087902	0.063007	7410.530762
9386.194837	0.087810	0.063007	7488.154785
9387.183565	0.992443	0.065807	434.689850
9387.184462	1.471919	0.065807	1755.001099
9387.185432	1.469242	0.065807	3180.165771
9387.186344	1.434188	0.065807	4488.145508
9387.187250	1.398369	0.065807	5755.067871
9387.188200	0.984994	0.065807	6690.812012
9387.189102	0.117231	0.065807	6796.554687
9387.190006	0.087660	0.065807	6875.799316
9387.190893	0.087773	0.065807	6953.654297
9387.191821	0.087880	0.065807	7035.206543
9387.192733	0.087817	0.065807	7115.295898
9387.193631	0.087817	0.065807	7194.155762
9387.194518	0.087711	0.065807	7271.955566
9387.195480	0.088070	0.065807	7356.679199
9387.196380	0.087876	0.065807	7435.767578
9387.197274	0.087902	0.065807	7514.351562
9388.252630	1.007483	0.064054	449.337372
9388.253529	1.473171	0.064054	1773.718506
9388.254423	1.470674	0.064054	3088.500977
9388.255364	1.435452	0.064054	4439.260742
9388.256275	1.399713	0.064054	5714.399414
9388.257175	1.070156	0.064054	6677.540039
9388.258114	0.133495	0.064054	6802.891602
9388.259027	0.087715	0.064054	6882.975098
9388.259933	0.087664	0.064054	6962.398437
9388.260828	0.087854	0.064054	7041.027832
9388.261766	0.087872	0.064054	7123.452148
9388.262673	0.087905	0.064054	7203.182129
9388.263573	0.087938	0.064054	7282.326660
9388.264460	0.087869	0.064054	7360.266113
9388.265409	0.087968	0.064054	7443.747070
9388.266316	0.087733	0.064054	7523.321289
9389.254100	1.010471	0.068002	453.701538
9389.255003	1.472750	0.068002	1783.595093
9389.255979	1.468143	0.068002	3216.502930
9389.256882	1.433159	0.068002	4510.645508
9389.257777	1.398380	0.068002	5762.195801
9389.258744	0.949980	0.068002	6680.827148
9389.259661	0.110306	0.068002	6781.978027
9389.260561	0.087583	0.068002	6860.802734
9389.261453	0.087810	0.068002	6939.129395
9389.262381	0.087788	0.068002	7020.596680
9389.263302	0.087704	0.068002	7101.372070
9389.264197	0.087740	0.068002	7179.899902
9389.265125	0.087678	0.068002	7261.265137
9389.266032	0.087825	0.068002	7340.922363
9389.266930	0.087817	0.068002	7419.782227
9389.267818	0.087762	0.068002	7497.715332
9390.324173	1.005710	0.059748	443.518311
9390.325132	1.476650	0.059748	1859.625977
9390.326055	1.468374	0.059748	3214.935059
9390.326958	1.433448	0.059748	4509.338867
9390.327885	1.397472	0.059748	5804.795410
9390.328810	0.974509	0.059748	6706.216309
9390.329720	0.113895	0.059748	6809.860840
9390.330611	0.087729	0.059748	6888.027832
9390.331551	0.087880	0.059748	6970.634766
9390.332454	0.087909	0.059748	7050.016602
9390.333350	0.087839	0.059748	7128.720703
9390.334240	0.087869	0.059748	7206.923828
9390.335189	0.088030	0.059748	7290.463867
9390.336098	0.087814	0.059748	7370.286621
9390.336994	0.087806	0.059748	7448.960937
9390.337927	0.087865	0.059748	7530.938965
9391.325662	1.013265	0.065875	460.022491
9391.326562	1.473307	0.065875	1785.998657
9391.327456	1.470363	0.065875	3100.502930
9391.328409	1.434305	0.065875	4467.395996
9391.329333	1.398179	0.065875	5759.312988
9391.330238	1.029287	0.065875	6690.817871
9391.331176	0.124153	0.065875	6807.273437
9391.332088	0.087854	0.065875	6887.396484
9391.332988	0.087858	0.065875	6966.468262
9391.333874	0.087839	0.065875	7044.293945
9391.334817	0.087909	0.065875	7127.191895
9391.335723	0.087898	0.065875	7206.827637
9391.336620	0.087858	0.065875	7285.635742
9391.337507	0.087946	0.065875	7363.643555
9391.338441	0.088066	0.065875	7445.897461
9391.339346	0.087799	0.065875	7525.355469
9392.396749	0.995845	0.060775	436.179993
9392.397650	1.472139	0.060775	1762.576904
9392.398623	1.468872	0.060775	3191.789551
9392.399540	1.433848	0.060775	4506.627930
9392.400442	1.397845	0.060775	5767.484375
9392.401357	0.976699	0.060775	6661.164062
9392.402303	0.113027	0.060775	6768.087891
9392.403199	0.087664	0.060775	6846.634277
9392.404087	0.087788	0.060775	6924.590332
9392.405026	0.087891	0.060775	7007.119629
9392.405941	0.087726	0.060775	7087.388672
9392.406839	0.087865	0.060775	7166.291504
9392.407726	0.087850	0.060775	7244.214844
9392.408678	0.088041	0.060775	7328.029785
9392.409578	0.087708	0.060775	7406.966797
9392.410466	0.087861	0.060775	7484.987793
9393.398231	1.009775	0.065279	447.330505
9393.399146	1.473600	0.065279	1795.674316
9393.400051	1.470623	0.065279	3126.587891
9393.400977	1.435499	0.065279	4455.860352
9393.401887	1.399266	0.065279	5729.192871
9393.402803	1.047715	0.065279	6688.899414
9393.403690	0.130660	0.065279	6804.795410
9393.404632	0.087729	0.065279	6887.436523
9393.405535	0.087719	0.065279	6966.646484
9393.406431	0.087825	0.065279	7045.337402
9393.407318	0.087880	0.065279	7123.286621
9393.408274	0.087865	0.065279	7207.285645
9393.409184	0.087751	0.065279	7287.139648
9393.410084	0.087766	0.065279	7366.128906
9393.411016	0.087806	0.065279	7447.964355
9393.411919	0.087821	0.065279	7527.266602
9394.468302	1.000701	0.063776	443.310364
9394.469268	1.476057	0.063776	1869.181641
9394.470167	1.468638	0.063776	3189.486816
9394.471096	1.433317	0.063776	4521.038086
9394.472007	1.396871	0.063776	5793.587891
9394.472958	0.941671	0.063776	6689.117187
9394.473879	0.108442	0.063776	6788.992676
9394.474774	0.087733	0.063776	6867.513672
9394.475725	0.087792	0.063776	6951.003418
9394.476629	0.087806	0.063776	7030.380371
9394.477555	0.087806	0.063776	7111.688965
9394.478442	0.087902	0.063776	7189.657715
9394.479387	0.087799	0.063776	7272.627930
9394.480305	0.087726	0.063776	7353.160156
9394.481191	0.087828	0.063776	7430.976074
9394.482108	0.087902	0.063776	7511.582031
9395.470852	1.029694	0.066894	507.638947
9395.471773	1.477068	0.066894	1868.018555
9395.472690	1.468103	0.066894	3214.269043
9395.473587	1.433364	0.066894	4499.997070
9395.474551	1.395623	0.066894	5845.377441
9395.475469	0.930842	0.066894	6699.890625
9395.476358	0.110262	0.066894	6797.914062
9395.477263	0.087777	0.066894	6877.352539
9395.478193	0.087913	0.066894	6959.111328
9395.479099	0.087766	0.066894	7038.627441
9395.479999	0.087799	0.066894	7117.646484
9395.480926	0.087861	0.066894	7199.093750
9395.481835	0.087891	0.066894	7278.986328
9395.482742	0.087766	0.066894	7358.590332
9395.483634	0.087854	0.066894	7436.956055
9395.484578	0.087898	0.066894	7519.931641
9396.538838	1.005502	0.061706	448.453766
9396.539735	1.472886	0.061706	1769.632202
9396.540678	1.469850	0.061706	3155.700684
9396.541598	1.434379	0.061706	4475.329102
9396.542505	1.398904	0.061706	5744.134766
9396.543404	1.051454	0.061706	6689.391602
9396.544362	0.116946	0.061706	6801.425781
9396.545261	0.087664	0.061706	6880.235352
9396.546165	0.087814	0.061706	6959.619141
9396.547053	0.087872	0.061706	7037.649902
9396.547999	0.087927	0.061706	7120.829102
9396.548901	0.087810	0.061706	7200.033691
9396.549795	0.087759	0.061706	7278.490234
9396.550720	0.087905	0.061706	7359.802734
9396.551620	0.087927	0.061706	7438.937500
9396.552523	0.087744	0.061706	7518.170410
9397.543371	0.995149	0.066415	435.875244
9397.544315	1.472670	0.066415	1826.075317
9397.545228	1.469311	0.066415	3167.556641
9397.546138	1.434478	0.066415	4472.931152
9397.547031	1.399340	0.066415	5722.541504
9397.547989	0.998258	0.066415	6678.872559
9397.548906	0.116656	0.066415	6785.846680
9397.549801	0.087748	0.066415	6864.380859
9397.550689	0.087927	0.066415	6942.460449
9397.551647	0.087843	0.066415	7026.614258
9397.552554	0.087916	0.066415	7106.354492
9397.553443	0.087803	0.066415	7184.411133
9397.554368	0.087927	0.066415	7265.743652
9397.555271	0.087806	0.066415	7345.032715
9397.556170	0.087876	0.066415	7424.033203
9397.557055	0.087810	0.066415	7501.745117
9398.611404	1.000430	0.060687	439.188660
9398.612305	1.472340	0.060687	1765.767090
9398.613201	1.471234	0.060687	3083.992676
9398.614177	1.434199	0.060687	4483.770996
9398.615077	1.398636	0.060687	5742.543945
9398.615987	1.040548	0.060687	6689.442871
9398.616873	0.128265	0.060687	6803.085937
9398.617823	0.087781	0.060687	6886.477539
9398.618730	0.087711	0.060687	6966.031738
9398.619622	0.087770	0.060687	7044.322266
9398.620550	0.087847	0.060687	7125.843750
9398.621459	0.087902	0.060687	7205.746094
9398.622359	0.087799	0.060687	7284.765137
9398.623245	0.087828	0.060687	7362.581055
9398.624197	0.087913	0.060687	7446.273926
9398.625091	0.087909	0.060687	7524.864746
9399.618007	1.008289	0.064957	449.696686
9399.618906	1.473032	0.064957	1773.952637
9399.619801	1.470905	0.064957	3090.412109
9399.620742	1.434983	0.064957	4440.730957
9399.621659	1.399006	0.064957	5723.619629
9399.622576	1.048773	0.064957	6685.344727
9399.623465	0.129038	0.064957	6800.059570
9399.624424	0.087729	0.064957	6884.192383
9399.625332	0.087909	0.064957	6964.013672
9399.626223	0.087770	0.064957	7042.216309
9399.627161	0.087913	0.064957	7124.678223
9399.628065	0.087898	0.064957	7204.138184
9399.628960	0.087880	0.064957	7282.790527
9399.629852	0.087682	0.064957	7361.002930
9399.630779	0.087982	0.064957	7442.562500
9399.631682	0.087942	0.064957	7521.974121
9400.680916	1.004561	0.062270	445.020355
9400.681830	1.473289	0.062270	1791.606079
9400.682735	1.470267	0.062270	3122.197998
9400.683688	1.434503	0.062270	4489.279297
9400.684603	1.398113	0.062270	5768.552734
9400.685510	1.024241	0.062270	6697.539062
9400.686392	0.126068	0.062270	6808.730957
9400.687330	0.087828	0.062270	6891.113770
9400.688231	0.087836	0.062270	6970.253906
9400.689132	0.087817	0.062270	7049.377441
9400.690024	0.087781	0.062270	7127.677734
9400.690967	0.087902	0.062270	7210.568848
9400.691871	0.087784	0.062270	7289.925781
9400.692766	0.087770	0.062270	7368.479492
9400.693707	0.087850	0.062270	7451.146484
9400.694604	0.087902	0.062270	7529.994141
9401.690600	1.031287	0.065557	474.391846
9401.691516	1.474874	0.065557	1825.376709
9401.692420	1.469766	0.065557	3154.044922
9401.693343	1.434558	0.065557	4478.142090
9401.694271	1.397842	0.065557	5775.339355
9401.695195	1.003088	0.065557	6702.192871
9401.696085	0.120685	0.065557	6809.602539
9401.697039	0.087737	0.065557	6893.303223
9401.697949	0.087894	0.065557	6973.287109
9401.698842	0.087788	0.065557	7051.681641
9401.699725	0.087781	0.065557	7129.191895
9401.700649	0.087898	0.065557	7210.409668
9401.701560	0.087773	0.065557	7290.371094
9401.702456	0.087872	0.065557	7369.104492
9401.703376	0.087850	0.065557	7449.926758
9401.704291	0.087957	0.065557	7530.407227
9402.751503	1.037131	0.063285	523.751282
9402.752410	1.476244	0.063285	1862.704346
9402.753342	1.467601	0.063285	3230.508789
9402.754236	1.432782	0.063285	4511.416016
9402.755176	1.395560	0.063285	5823.242676
9402.756106	0.936306	0.063285	6694.007324
9402.756994	0.110775	0.063285	6792.375488
9402.757909	0.087770	0.063285	6872.685059
9402.758857	0.087810	0.063285	6955.929199
9402.759782	0.087766	0.063285	7037.112793
9402.760674	0.087759	0.063285	7115.393555
9402.761624	0.087748	0.063285	7198.753906
9402.762524	0.087715	0.063285	7277.697266
9402.763443	0.087803	0.063285	7358.388184
9402.764326	0.087781	0.063285	7435.898437
9402.765255	0.087777	0.063285	7517.443359
9403.763188	1.007098	0.066411	481.393066
9403.764124	1.476951	0.066411	1863.818848
9403.765040	1.468077	0.066411	3208.577637
9403.765945	1.433163	0.066411	4505.589844
9403.766911	1.395520	0.066411	5853.662109
9403.767838	0.909302	0.066411	6696.584961
9403.768733	0.107545	0.066411	6792.837891
9403.769618	0.087583	0.066411	6870.348633
9403.770551	0.087880	0.066411	6952.340332
9403.771461	0.087784	0.066411	7032.224121
9403.772359	0.087733	0.066411	7111.008301
9403.773292	0.087828	0.066411	7192.952148
9403.774208	0.087828	0.066411	7273.402832
9403.775110	0.087817	0.066411	7352.614258
9403.775998	0.087719	0.066411	7430.508301
9403.776940	0.087887	0.066411	7513.297852
9404.819973	1.045561	0.062399	520.689575
9404.820898	1.477548	0.062399	1887.421021
9404.821798	1.467938	0.062399	3208.565430
9404.822693	1.433730	0.062399	4491.754395
9404.823658	1.396084	0.062399	5838.975586
9404.824584	0.938701	0.062399	6708.212891
9404.825479	0.110742	0.062399	6807.327148
9404.826407	0.087700	0.062399	6888.712891
9404.827324	0.087876	0.062399	6969.294922
9404.828233	0.087792	0.062399	7049.097656
9404.829123	0.087942	0.062399	7127.365723
9404.830048	0.087979	0.062399	7208.746094
9404.830960	0.087839	0.062399	7288.855469
9404.831862	0.087850	0.062399	7368.096680
9404.832749	0.087854	0.062399	7446.022949
9404.833697	0.087971	0.062399	7529.419434
9405.835750	1.037219	0.067329	481.269684
9405.836684	1.475911	0.067329	1859.770142
9405.837588	1.468118	0.067329	3186.948730
9405.838534	1.432262	0.067329	4541.868652
9405.839461	1.396011	0.067329	5835.970703
9405.840371	0.953628	0.067329	6703.771973
9405.841309	0.109991	0.067329	6806.943848
9405.842222	0.087722	0.067329	6887.034180
9405.843143	0.087924	0.067329	6968.011719
9405.844029	0.087839	0.067329	7045.837402
9405.844977	0.087803	0.067329	7129.074219
9405.845894	0.087803	0.067329	7209.589355
9405.846787	0.087971	0.067329	7288.147461
9405.847725	0.087924	0.067329	7370.619629
9405.848653	0.087828	0.067329	7452.124512
9405.849563	0.087759	0.067329	7531.984863
9406.892492	1.002261	0.060010	444.001526
9406.893466	1.476914	0.060010	1882.515869
9406.894374	1.468359	0.060010	3215.786133
9406.895270	1.433705	0.060010	4500.385742
9406.896204	1.397490	0.060010	5805.641602
9406.897128	0.973780	0.060010	6705.414551
9406.898033	0.114767	0.060010	6809.278320
9406.898927	0.087612	0.060010	6887.603516
9406.899861	0.087858	0.060010	6969.662598
9406.900767	0.087887	0.060010	7049.288086
9406.901668	0.087825	0.060010	7128.417969
9406.902557	0.087902	0.060010	7206.562500
9406.903516	0.087979	0.060010	7290.934082
9406.904418	0.087913	0.060010	7370.231445
9406.905306	0.087920	0.060010	7448.304199
9406.906225	0.087872	0.060010	7529.059082
9407.907280	1.007519	0.066914	447.338654
9407.908181	1.472897	0.066914	1774.418701
9407.909076	1.470795	0.066914	3090.779785
9407.910033	1.434514	0.066914	4463.609863
9407.910947	1.398695	0.066914	5742.017090
9407.911859	1.041053	0.066914	6691.458008
9407.912781	0.127859	0.066914	6809.343750
9407.913683	0.087773	0.066914	6888.515625
9407.914594	0.087858	0.066914	6968.553711
9407.915483	0.087909	0.066914	7046.704590
9407.916412	0.087964	0.066914	7128.422852
9407.917320	0.087894	0.066914	7208.230957
9407.918219	0.087872	0.066914	7287.228027
9407.919108	0.087843	0.066914	7365.320312
9407.920068	0.087869	0.066914	7449.674316
9407.920976	0.087814	0.066914	7529.409180
9408.967188	1.071720	0.059885	550.864075
9408.968099	1.477072	0.059885	1896.476318
9408.969029	1.467349	0.059885	3261.110596
9408.969924	1.431881	0.059885	4542.644043
9408.970891	1.394158	0.059885	5890.794434
9408.971807	0.903131	0.059885	6718.062500
9408.972697	0.107036	0.059885	6813.324707
9408.973644	0.087817	0.059885	6896.487793
9408.974540	0.087682	0.059885	6975.050781
9408.975457	0.087704	0.059885	7055.475098
9408.976344	0.087773	0.059885	7133.330078
9408.977284	0.087898	0.059885	7215.954102
9408.978187	0.087953	0.059885	7295.375488
9408.979102	0.087858	0.059885	7375.765137
9408.979991	0.087843	0.059885	7453.857422
9408.980925	0.087858	0.059885	7535.916504
9409.976788	1.004301	0.067559	445.909454
9409.977710	1.473882	0.067559	1804.828491
9409.978616	1.470051	0.067559	3136.694824
9409.979580	1.433379	0.067559	4518.472168
9409.980491	1.397399	0.067559	5791.502441
9409.981408	0.991725	0.067559	6700.914062
9409.982295	0.119788	0.067559	6807.165527
9409.983238	0.087814	0.067559	6889.973633
9409.984138	0.087737	0.067559	6968.936523
9409.985035	0.087828	0.067559	7047.718750
9409.985967	0.087825	0.067559	7129.571289
9409.986878	0.087865	0.067559	7209.616211
9409.987776	0.087708	0.067559	7288.377441
9409.988665	0.087748	0.067559	7366.385254
9409.989618	0.087909	0.067559	7450.162598
9409.990518	0.087902	0.067559	7529.273926
9411.039708	1.016913	0.060006	456.593842
9411.040622	1.473834	0.060006	1803.678345
9411.041531	1.469645	0.060006	3139.585449
9411.042471	1.434199	0.060006	4487.732422
9411.043399	1.397516	0.060006	5784.626953
9411.044324	0.985521	0.060006	6696.233887
9411.045222	0.117198	0.060006	6801.478027
9411.046169	0.087832	0.060006	6884.654785
9411.047071	0.087784	0.060006	6963.836426
9411.047973	0.087832	0.060006	7043.061035
9411.048858	0.087865	0.060006	7120.821777
9411.049796	0.087880	0.060006	7203.252930
9411.050710	0.087850	0.060006	7283.548340
9411.051606	0.087883	0.060006	7362.291992
9411.052528	0.087825	0.060006	7443.266602
9411.053431	0.087931	0.060006	7522.667969
9412.047377	1.067827	0.069759	542.456238
9412.048283	1.476541	0.069759	1880.201904
9412.049214	1.467546	0.069759	3246.487549
9412.050109	1.432405	0.069759	4528.489746
9412.051050	1.395634	0.069759	5841.780762
9412.051992	0.915007	0.069759	6703.717773
9412.052888	0.108036	0.069759	6800.518066
9412.053828	0.087748	0.069759	6883.000977
9412.054728	0.087799	0.069759	6962.020020
9412.055643	0.087887	0.069759	7042.436523
9412.056533	0.087913	0.069759	7120.678711
9412.057490	0.087729	0.069759	7204.635742
9412.058391	0.087740	0.069759	7283.689941
9412.059282	0.087828	0.069759	7361.944824
9412.060223	0.087935	0.069759	7444.691406
9412.061117	0.087832	0.069759	7523.213379
9413.115343	1.012134	0.060276	449.387421
9413.116323	1.477617	0.060276	1897.452271
9413.117241	1.467492	0.060276	3244.609375
9413.118144	1.432416	0.060276	4538.081055
9413.119075	1.396476	0.060276	5838.200195
9413.120002	0.943531	0.060276	6712.854004
9413.120893	0.112148	0.060276	6812.778320
9413.121781	0.087656	0.060276	6890.617187
9413.122724	0.087924	0.060276	6973.529297
9413.123622	0.087883	0.060276	7052.448730
9413.124531	0.087858	0.060276	7132.311523
9413.125424	0.087913	0.060276	7210.817383
9413.126375	0.087876	0.060276	7294.387207
9413.127287	0.087927	0.060276	7374.576660
9413.128181	0.087898	0.060276	7453.157227
9413.129108	0.087799	0.060276	7534.546875
9414.116816	1.005073	0.068522	445.247437
9414.117714	1.472300	0.068522	1767.372559
9414.118612	1.469945	0.068522	3087.383301
9414.119584	1.434174	0.068522	4481.399902
9414.120499	1.397824	0.068522	5760.408203
9414.121408	1.021461	0.068522	6688.916504
9414.122344	0.121967	0.068522	6803.077148
9414.123242	0.087697	0.068522	6881.828613
9414.124135	0.087711	0.068522	6960.154785
9414.125022	0.087759	0.068522	7037.997070
9414.125953	0.087825	0.068522	7119.761719
9414.126859	0.087751	0.068522	7199.264648
9414.127765	0.087795	0.068522	7278.807129
9414.128650	0.087792	0.068522	7356.502930
9414.129600	0.087850	0.068522	7439.960937
9414.130515	0.087689	0.068522	7520.196777
9415.188937	0.993069	0.059099	431.984955
9415.189925	1.475109	0.059099	1889.392334
9415.190840	1.467770	0.059099	3232.401611
9415.191766	1.431940	0.059099	4558.377930
9415.192662	1.396183	0.059099	5809.357910
9415.193622	0.925214	0.059099	6697.562988
9415.194513	0.109233	0.059099	6794.890137
9415.195400	0.087576	0.059099	6872.569824
9415.196338	0.087902	0.059099	6955.021484
9415.197250	0.087788	0.059099	7035.083984
9415.198153	0.087891	0.059099	7114.449219
9415.199041	0.087872	0.059099	7192.479980
9415.199985	0.087938	0.059099	7275.493652
9415.200902	0.087839	0.059099	7356.042480
9415.201814	0.087799	0.059099	7436.115234
9415.202707	0.087773	0.059099	7514.497070
9416.186320	1.004425	0.068622	445.964722
9416.187220	1.472476	0.068622	1771.192749
9416.188114	1.471194	0.068622	3086.439941
9416.189080	1.434466	0.068622	4472.134766
9416.189981	1.398677	0.068622	5732.342773
9416.190891	1.050963	0.068622	6688.719238
9416.191776	0.130305	0.068622	6804.039551
9416.192709	0.087839	0.068622	6885.993652
9416.193616	0.087817	0.068622	6965.644043
9416.194513	0.087839	0.068622	7044.436035
9416.195442	0.087792	0.068622	7125.994629
9416.196356	0.087957	0.068622	7206.386719
9416.197258	0.087806	0.068622	7285.587891
9416.198145	0.087803	0.068622	7363.468750
9416.199099	0.087883	0.068622	7447.309570
9416.200002	0.087722	0.068622	7526.522461
9417.260492	0.989623	0.058818	431.475525
9417.261386	1.471483	0.058818	1746.981445
9417.262339	1.469311	0.058818	3147.235352
9417.263254	1.434163	0.058818	4459.494141
9417.264165	1.398380	0.058818	5733.418457
9417.265079	1.009779	0.058818	6656.356445
9417.266027	0.116115	0.058818	6766.433105
9417.266934	0.087733	0.058818	6846.006836
9417.267833	0.087740	0.058818	6924.885742
9417.268769	0.087880	0.058818	7007.141113
9417.269672	0.087751	0.058818	7086.380859
9417.270572	0.087814	0.058818	7165.413086
9417.271455	0.087806	0.058818	7242.946289
9417.272391	0.087924	0.058818	7325.242676
9417.273296	0.087803	0.058818	7404.704102
9417.274191	0.087817	0.058818	7483.300781
9418.256861	1.012449	0.066745	453.576996
9418.257759	1.472996	0.066745	1776.327148
9418.258655	1.470590	0.066745	3093.975586
9418.259611	1.434727	0.066745	4465.574219
9418.260508	1.398457	0.066745	5719.990234
9418.261438	1.031477	0.066745	6679.263672
9418.262333	0.125793	0.066745	6791.848633
9418.263285	0.087711	0.066745	6875.349609
9418.264189	0.087729	0.066745	6954.657227
9418.265079	0.087898	0.066745	7032.886230
9418.266010	0.087876	0.066745	7114.698730
9418.266920	0.087883	0.066745	7194.672363
9418.267824	0.087847	0.066745	7274.085937
9418.268706	0.087817	0.066745	7351.541016
9418.269657	0.087759	0.066745	7434.999512
9418.270551	0.087803	0.066745	7513.495117
9419.332074	1.035996	0.061678	474.486206
9419.332985	1.474658	0.061678	1817.899780
9419.333897	1.469301	0.061678	3157.901855
9419.334790	1.434335	0.061678	4438.762695
9419.335741	1.397802	0.061678	5768.071777
9419.336666	1.001576	0.061678	6694.529297
9419.337559	0.120081	0.061678	6801.761230
9419.338493	0.087737	0.061678	6883.707520
9419.339391	0.087931	0.061678	6962.669434
9419.340290	0.087909	0.061678	7041.699707
9419.341175	0.087935	0.061678	7119.521973
9419.342113	0.088044	0.061678	7202.107422
9419.343014	0.087891	0.061678	7281.296875
9419.343912	0.087839	0.061678	7360.176758
9419.344797	0.087799	0.061678	7437.878906
9419.345754	0.087865	0.061678	7521.965820
9420.329428	1.009032	0.067962	450.028290
9420.330328	1.472589	0.067962	1775.358521
9420.331223	1.470282	0.067962	3091.260742
9420.332172	1.434474	0.067962	4452.576172
9420.333088	1.398765	0.067962	5733.844727
9420.333999	1.045540	0.067962	6686.331055
9420.334943	0.126226	0.067962	6805.487793
9420.335852	0.087708	0.067962	6885.213867
9420.336751	0.087733	0.067962	6964.085937
9420.337641	0.087766	0.067962	7042.197754
9420.338594	0.087825	0.067962	7125.894531
9420.339496	0.087781	0.067962	7205.072754
9420.340392	0.087788	0.067962	7283.730957
9420.341285	0.087861	0.067962	7362.190918
9420.342227	0.087821	0.067962	7444.918457
9420.343139	0.087740	0.067962	7524.937988
9421.403614	1.015393	0.061847	458.957703
9421.404513	1.473182	0.061847	1783.348633
9421.405406	1.470044	0.061847	3096.097900
9421.406372	1.433851	0.061847	4481.198242
9421.407276	1.398149	0.061847	5745.125000
9421.408173	1.048378	0.061847	6685.519531
9421.409104	0.128181	0.061847	6804.855957
9421.410012	0.087759	0.061847	6884.541016
9421.410928	0.087825	0.061847	6964.988281
9421.411826	0.087869	0.061847	7043.894531
9421.412763	0.088026	0.061847	7126.375000
9421.413670	0.087869	0.061847	7206.071777
9421.414590	0.087847	0.061847	7286.890625
9421.415479	0.087759	0.061847	7364.908203
9421.416426	0.087839	0.061847	7448.092285
9421.417323	0.087880	0.061847	7526.920410
9422.404036	0.990765	0.065476	429.992187
9422.404995	1.474310	0.065476	1843.855713
9422.405912	1.468491	0.065476	3190.462158
9422.406822	1.433225	0.065476	4494.697266
9422.407718	1.398087	0.065476	5747.383301
9422.408679	0.975762	0.065476	6685.090332
9422.409586	0.114840	0.065476	6789.250488
9422.410474	0.087799	0.065476	6867.215820
9422.411404	0.087872	0.065476	6948.937012
9422.412307	0.087986	0.065476	7028.388184
9422.413202	0.087784	0.065476	7106.955078
9422.414087	0.087843	0.065476	7184.696289
9422.415017	0.087821	0.065476	7266.369629
9422.415926	0.087942	0.065476	7346.308594
9422.416826	0.087770	0.065476	7425.301270
9422.417717	0.087836	0.065476	7503.562988
9423.474122	0.989605	0.060973	430.477966
9423.475077	1.474958	0.060973	1839.063232
9423.475987	1.468704	0.060973	3175.583496
9423.476889	1.434272	0.060973	4469.297363
9423.477801	1.398241	0.060973	5744.493164
9423.478748	0.996350	0.060973	6688.036621
9423.479651	0.117770	0.060973	6794.382812
9423.480548	0.087645	0.060973	6873.000488
9423.481478	0.087891	0.060973	6954.738770
9423.482385	0.087828	0.060973	7034.398926
9423.483282	0.087770	0.060973	7113.128418
9423.484167	0.087883	0.060973	7190.905273
9423.485110	0.087924	0.060973	7273.817383
9423.486015	0.087722	0.060973	7353.206055
9423.486909	0.087803	0.060973	7431.701660
9423.487812	0.087905	0.060973	7511.080078
9424.474579	1.010929	0.065247	452.896118
9424.475545	1.476577	0.065247	1879.269531
9424.476446	1.468228	0.065247	3202.142578
9424.477343	1.433895	0.065247	4488.346680
9424.478304	1.397340	0.065247	5831.190430
9424.479217	0.956605	0.065247	6704.571289
9424.480124	0.112570	0.065247	6806.671875
9424.481016	0.087719	0.065247	6884.916992
9424.481960	0.087869	0.065247	6967.865234
9424.482869	0.087755	0.065247	7047.634766
9424.483770	0.087781	0.065247	7126.725098
9424.484655	0.087828	0.065247	7204.453125
9424.485599	0.087909	0.065247	7287.438965
9424.486501	0.087759	0.065247	7366.597168
9424.487393	0.087916	0.065247	7445.018555
9424.488343	0.087942	0.065247	7528.563477
9425.545678	1.001353	0.061359	439.593781
9425.546583	1.472443	0.061359	1772.154297
9425.547474	1.470370	0.061359	3082.253906
9425.548444	1.434254	0.061359	4473.480469
9425.549366	1.397681	0.061359	5762.142090
9425.550275	1.021853	0.061359	6691.006348
9425.551219	0.121447	0.061359	6805.651855
9425.552120	0.087876	0.061359	6884.828125
9425.553023	0.087828	0.061359	6964.137207
9425.553908	0.087883	0.061359	7041.914062
9425.554844	0.087865	0.061359	7124.155762
9425.555746	0.087916	0.061359	7203.456055
9425.556644	0.087795	0.061359	7282.296387
9425.557533	0.087942	0.061359	7360.476562
9425.558483	0.087869	0.061359	7443.951660
9425.559391	0.087711	0.061359	7523.593262
9426.549213	1.008710	0.065005	455.936768
9426.550107	1.472809	0.065005	1772.627930
9426.551050	1.469363	0.065005	3158.236816
9426.551969	1.433965	0.065005	4476.050781
9426.552875	1.398047	0.065005	5742.681152
9426.553777	1.046554	0.065005	6686.672852
9426.554723	0.117162	0.065005	6797.507812
9426.555623	0.087737	0.065005	6876.470703
9426.556523	0.087843	0.065005	6955.529297
9426.557409	0.087828	0.065005	7033.345215
9426.558357	0.087927	0.065005	7116.700195
9426.559269	0.087708	0.065005	7196.689453
9426.560159	0.087839	0.065005	7274.866699
9426.561094	0.087803	0.065005	7356.962402
9426.562004	0.087949	0.065005	7436.996094
9426.562906	0.087795	0.065005	7516.187500
9427.617224	0.990077	0.062290	429.693390
9427.618165	1.473457	0.062290	1816.216431
9427.619079	1.469429	0.062290	3159.274414
9427.619981	1.434749	0.062290	4453.417480
9427.620875	1.399112	0.062290	5704.224121
9427.621838	1.014785	0.062290	6681.462402
9427.622730	0.122596	0.062290	6790.818359
9427.623620	0.087722	0.062290	6868.891113
9427.624543	0.087762	0.062290	6949.895996
9427.625467	0.087858	0.062290	7031.076660
9427.626369	0.087858	0.062290	7110.324219
9427.627257	0.087916	0.062290	7188.394043
9427.628187	0.087905	0.062290	7270.145996
9427.629091	0.087744	0.062290	7349.466797
9427.629989	0.087909	0.062290	7428.409180
9427.630875	0.087821	0.062290	7506.218750
9428.619716	0.987773	0.065811	427.705902
9428.620646	1.471553	0.065811	1796.250000
9428.621589	1.468828	0.065811	3181.354980
9428.622511	1.433298	0.065811	4502.855957
9428.623418	1.397754	0.065811	5770.618652
9428.624379	0.957235	0.065811	6690.521484
9428.625281	0.113046	0.065811	6792.488770
9428.626179	0.087806	0.065811	6871.338867
9428.627064	0.087872	0.065811	6949.105957
9428.627994	0.088004	0.065811	7030.949707
9428.628901	0.087825	0.065811	7110.606934
9428.629797	0.087821	0.065811	7189.294434
9428.630725	0.087924	0.065811	7270.887695
9428.631641	0.087964	0.065811	7351.462402
9428.632551	0.087850	0.065811	7431.406250
9428.633447	0.087854	0.065811	7510.123535
9429.687780	1.019897	0.062592	463.033447
9429.688700	1.474178	0.062592	1819.277588
9429.689601	1.469557	0.062592	3143.348145
9429.690524	1.434031	0.062592	4466.958496
9429.691462	1.397413	0.062592	5777.732422
9429.692386	0.993376	0.062592	6695.612305
9429.693280	0.118337	0.062592	6801.405762
9429.694217	0.087762	0.062592	6883.639160
9429.695123	0.087814	0.062592	6963.198242
9429.696031	0.087803	0.062592	7042.923340
9429.696918	0.087872	0.062592	7120.866211
9429.697861	0.087942	0.062592	7203.795410
9429.698767	0.087894	0.062592	7283.427734
9429.699654	0.087810	0.062592	7361.315430
9429.700578	0.087913	0.062592	7442.546875
9429.701500	0.087887	0.062592	7523.578613
9430.691339	1.074247	0.065219	538.197632
9430.692270	1.477496	0.065219	1913.746704
9430.693182	1.467425	0.065219	3252.038574
9430.694078	1.432108	0.065219	4535.207520
9430.695030	1.395637	0.065219	5863.854492
9430.695945	0.940089	0.065219	6724.036133
9430.696832	0.112148	0.065219	6823.511719
9430.697765	0.087836	0.065219	6905.462402
9430.698678	0.087909	0.065219	6985.723145
9430.699573	0.087766	0.065219	7064.273926
9430.700467	0.087836	0.065219	7142.798828
9430.701396	0.087935	0.065219	7224.490234
9430.702312	0.087759	0.065219	7304.877441
9430.703216	0.087898	0.065219	7384.337402
9430.704107	0.087960	0.065219	7462.709961
9430.705040	0.087821	0.065219	7544.646973
9431.761369	1.010413	0.060658	451.654419
9431.762269	1.473051	0.060658	1777.399902
9431.763163	1.470839	0.060658	3092.329590
9431.764109	1.434617	0.060658	4449.477051
9431.765027	1.398578	0.060658	5733.371582
9431.765941	1.043569	0.060658	6687.193848
9431.766827	0.128752	0.060658	6801.268555
9431.767779	0.087858	0.060658	6884.909180
9431.768686	0.087876	0.060658	6964.612793
9431.769577	0.087891	0.060658	7042.923340
9431.770518	0.087832	0.060658	7125.573242
9431.771413	0.087938	0.060658	7204.277832
9431.772310	0.087909	0.060658	7283.132324
9431.773199	0.087773	0.060658	7361.163086
9431.774139	0.087938	0.060658	7443.825195
9431.775045	0.087832	0.060658	7523.400879
9432.762844	1.001979	0.066524	447.884491
9432.763742	1.472633	0.066524	1770.309082
9432.764633	1.470667	0.066524	3080.672852
9432.765575	1.434803	0.066524	4432.257812
9432.766504	1.398417	0.066524	5731.386719
9432.767409	1.049381	0.066524	6681.076660
9432.768348	0.128665	0.066524	6801.892578
9432.769258	0.087605	0.066524	6881.613281
9432.770183	0.087821	0.066524	6962.847656
9432.771068	0.087722	0.066524	7040.481934
9432.772040	0.087770	0.066524	7125.793945
9432.772940	0.087682	0.066524	7204.707520
9432.773860	0.087810	0.066524	7285.492676
9432.774748	0.087788	0.066524	7363.448730
9432.775676	0.087751	0.066524	7444.882324
9432.776595	0.087799	0.066524	7525.569824
9433.832909	1.000448	0.062737	437.195770
9433.833864	1.474523	0.062737	1845.364990
9433.834789	1.468238	0.062737	3203.485596
9433.835699	1.433101	0.062737	4507.607422
9433.836594	1.397333	0.062737	5758.220215
9433.837559	0.962109	0.062737	6686.655762
9433.838466	0.112855	0.062737	6789.015625
9433.839358	0.087708	0.062737	6867.250977
9433.840307	0.087858	0.062737	6950.627930
9433.841208	0.087872	0.062737	7029.800781
9433.842102	0.087777	0.062737	7108.273437
9433.842991	0.087887	0.062737	7186.404785
9433.843921	0.087876	0.062737	7268.129395
9433.844826	0.087858	0.062737	7347.640625
9433.845730	0.087792	0.062737	7427.004395
9433.846617	0.087920	0.062737	7504.989258
9434.833383	1.012716	0.068755	472.938385
9434.834328	1.476793	0.068755	1868.507935
9434.835252	1.467213	0.068755	3224.212891
9434.836156	1.432427	0.068755	4519.126465
9434.837101	1.395689	0.068755	5838.052246
9434.838028	0.929700	0.068755	6699.883789
9434.838931	0.108636	0.068755	6797.982422
9434.839818	0.087656	0.068755	6875.733398
9434.840761	0.087891	0.068755	6958.614258
9434.841660	0.087806	0.068755	7037.552246
9434.842549	0.087828	0.068755	7115.631836
9434.843486	0.087832	0.068755	7197.930664
9434.844379	0.087839	0.068755	7276.371094
9434.845285	0.087766	0.068755	7355.887207
9434.846190	0.087843	0.068755	7435.385254
9434.847124	0.087854	0.068755	7517.440918
9435.904482	1.014159	0.062133	456.371521
9435.905386	1.473120	0.062133	1788.072021
9435.906282	1.470286	0.062133	3105.447998
9435.907254	1.433745	0.062133	4499.048340
9435.908174	1.397435	0.062133	5784.688965
9435.909076	1.017839	0.062133	6702.780273
9435.910004	0.122699	0.062133	6816.645020
9435.910908	0.087719	0.062133	6895.942383
9435.911818	0.087693	0.062133	6975.742676
9435.912711	0.087854	0.062133	7054.196289
9435.913643	0.087865	0.062133	7136.086426
9435.914550	0.087847	0.062133	7215.763184
9435.915456	0.087766	0.062133	7295.279297
9435.916345	0.087843	0.062133	7373.371582
9435.917287	0.087986	0.062133	7456.254395
9435.918192	0.087795	0.062133	7535.709473
9436.904919	1.010731	0.065996	451.796844
9436.905819	1.472812	0.065996	1777.328003
9436.906718	1.470037	0.065996	3098.890869
9436.907680	1.433906	0.065996	4478.308594
9436.908592	1.397988	0.065996	5753.273926
9436.909499	1.032979	0.065996	6690.185547
9436.910431	0.124926	0.065996	6806.616211
9436.911333	0.087686	0.065996	6885.708496
9436.912226	0.087861	0.065996	6964.168457
9436.913108	0.087883	0.065996	7041.681641
9436.914049	0.087858	0.065996	7124.355469
9436.914963	0.087916	0.065996	7204.710937
9436.915861	0.087960	0.065996	7283.699219
9436.916748	0.087777	0.065996	7361.557617
9436.917698	0.087803	0.065996	7444.970215
9436.918603	0.087821	0.065996	7524.448242
9437.979080	0.991121	0.061263	430.146332
9437.980051	1.474200	0.061263	1861.594971
9437.980964	1.468506	0.061263	3202.340820
9437.981871	1.433628	0.061263	4502.641602
9437.982764	1.397758	0.061263	5750.838867
9437.983735	0.960776	0.061263	6683.752930
9437.984638	0.113452	0.061263	6786.200195
9437.985534	0.087788	0.061263	6864.858398
9437.986463	0.087982	0.061263	6946.593750
9437.987377	0.087905	0.061263	7026.938965
9437.988283	0.087920	0.061263	7106.594238
9437.989180	0.087821	0.061263	7185.369629
9437.990136	0.088008	0.061263	7269.504883
9437.991037	0.087854	0.061263	7348.661133
9437.991943	0.087935	0.061263	7428.330078
9437.992829	0.087942	0.061263	7506.246582
9438.976460	0.997050	0.066512	440.695923
9438.977355	1.471575	0.066512	1757.755371
9438.978346	1.467869	0.066512	3212.413086
9438.979280	1.431940	0.066512	4549.844727
9438.980175	1.396655	0.066512	5799.851074
9438.981140	0.916088	0.066512	6683.875488
9438.982065	0.105168	0.066512	6781.156250
9438.982972	0.087689	0.066512	6860.690430
9438.983871	0.087839	0.066512	6939.658203
9438.984828	0.087770	0.066512	7023.653809
9438.985735	0.087777	0.066512	7103.267578
9438.986651	0.087762	0.066512	7183.658203
9438.987550	0.087872	0.066512	7262.655273
9438.988497	0.087902	0.066512	7345.897949
9438.989411	0.087894	0.066512	7426.233398
9438.990300	0.087924	0.066512	7504.397461
9440.049609	0.998881	0.060888	438.508606
9440.050588	1.476248	0.060888	1883.754883
9440.051488	1.468151	0.060888	3205.090332
9440.052386	1.433401	0.060888	4492.284180
9440.053321	1.397230	0.060888	5798.694336
9440.054259	0.959242	0.060888	6698.463379
9440.055159	0.112632	0.060888	6799.832031
9440.056048	0.087777	0.060888	6877.865723
9440.057006	0.087880	0.060888	6962.054199
9440.057918	0.087872	0.060888	7042.193848
9440.058813	0.087909	0.060888	7120.872559
9440.059699	0.087880	0.060888	7198.733887
9440.060642	0.088059	0.060888	7281.773437
9440.061536	0.087898	0.060888	7360.354004
9440.062425	0.087850	0.060888	7438.453125
9440.063354	0.087942	0.060888	7520.151367
9441.048031	1.018894	0.068639	467.672394
9441.048932	1.472728	0.068639	1794.600464
9441.049893	1.468202	0.068639	3205.542480
9441.050797	1.432870	0.068639	4500.856934
9441.051713	1.397358	0.068639	5780.837402
9441.052622	0.972147	0.068639	6664.519043
9441.053571	0.110442	0.068639	6769.328613
9441.054480	0.087788	0.068639	6849.127930
9441.055377	0.087825	0.068639	6927.906738
9441.056293	0.087938	0.068639	7008.458008
9441.057193	0.087953	0.068639	7087.615723
9441.058090	0.087843	0.068639	7166.411133
9441.058975	0.087861	0.068639	7244.168457
9441.059927	0.087891	0.068639	7327.840332
9441.060817	0.088011	0.068639	7406.170410
9441.061715	0.087817	0.068639	7485.030273
9442.121175	1.011335	0.060276	452.066925
9442.122073	1.472618	0.060276	1774.478149
9442.123017	1.469194	0.060276	3161.397461
9442.123927	1.434404	0.060276	4466.705078
9442.124832	1.398680	0.060276	5732.510742
9442.125725	1.039142	0.060276	6660.464355
9442.126690	0.118491	0.060276	6774.808594
9442.127594	0.087678	0.060276	6854.069824
9442.128483	0.087946	0.060276	6932.253418
9442.129407	0.087839	0.060276	7013.416992
9442.130315	0.087986	0.060276	7093.308105
9442.131219	0.087759	0.060276	7172.642090
9442.132106	0.087817	0.060276	7250.536133
9442.133044	0.087916	0.060276	7333.001465
9442.133941	0.087847	0.060276	7411.799805
9442.134836	0.087737	0.060276	7490.324219
9443.120593	1.004938	0.068300	443.177551
9443.121498	1.472640	0.068300	1775.916992
9443.122392	1.470685	0.068300	3090.709229
9443.123338	1.434935	0.068300	4448.158203
9443.124259	1.398863	0.068300	5736.511719
9443.125169	1.045891	0.068300	6688.272461
9443.126055	0.129785	0.068300	6803.262207
9443.127008	0.087792	0.068300	6886.927734
9443.127910	0.087869	0.068300	6966.185059
9443.128801	0.087979	0.068300	7044.573730
9443.129729	0.087814	0.068300	7126.064941
9443.130641	0.087953	0.068300	7206.277832
9443.131550	0.087825	0.068300	7286.110352
9443.132442	0.087847	0.068300	7364.469727
9443.133380	0.088026	0.068300	7447.038086
9443.134299	0.087850	0.068300	7527.772461
9444.192771	1.056350	0.060658	525.005981
9444.193691	1.476434	0.060658	1883.325562
9444.194600	1.467649	0.060658	3217.418457
9444.195497	1.432661	0.060658	4502.515625
9444.196446	1.396267	0.060658	5827.573242
9444.197365	0.959524	0.060658	6709.375977
9444.198258	0.113448	0.060658	6810.685547
9444.199198	0.087777	0.060658	6893.195801
9444.200110	0.087997	0.060658	6973.448730
9444.201014	0.087803	0.060658	7052.822266
9444.201912	0.087887	0.060658	7131.744629
9444.202843	0.088000	0.060658	7213.672852
9444.203742	0.087861	0.060658	7292.660156
9444.204647	0.087887	0.060658	7372.197754
9444.205534	0.087850	0.060658	7450.121094
9444.206477	0.088052	0.060658	7533.153809
9445.194200	1.015023	0.067990	455.745422
9445.195102	1.472926	0.067990	1784.324707
9445.196054	1.468971	0.067990	3182.785156
9445.196961	1.433804	0.067990	4483.245117
9445.197867	1.398102	0.067990	5749.925293
9445.198768	1.024841	0.067990	6673.307129
9445.199715	0.117385	0.067990	6784.471191
9445.200610	0.087784	0.067990	6863.038086
9445.201511	0.087806	0.067990	6942.151855
9445.202438	0.087876	0.067990	7023.612793
9445.203349	0.087865	0.067990	7103.657715
9445.204253	0.087722	0.067990	7182.958496
9445.205154	0.087773	0.067990	7262.042480
9445.206099	0.088008	0.067990	7345.209961
9445.206998	0.087887	0.067990	7424.220215
9445.207894	0.087880	0.067990	7502.960449
9446.262227	0.996467	0.060687	440.438538
9446.263168	1.475196	0.060687	1828.598389
9446.264100	1.468173	0.060687	3196.935303
9446.265013	1.432903	0.060687	4505.175781
9446.265926	1.396685	0.060687	5780.348633
9446.266880	0.949823	0.060687	6686.479492
9446.267781	0.111621	0.060687	6787.050293
9446.268668	0.087733	0.060687	6864.869629
9446.269606	0.088030	0.060687	6947.441406
9446.270515	0.087850	0.060687	7027.297363
9446.271409	0.087902	0.060687	7105.881348
9446.272294	0.087865	0.060687	7183.642090
9446.273236	0.087924	0.060687	7266.466309
9446.274145	0.087913	0.060687	7346.378906
9446.275050	0.087909	0.060687	7425.936523
9446.275943	0.087872	0.060687	7504.406738
9447.268859	1.018085	0.068151	496.825378
9447.269783	1.476248	0.068151	1860.878174
9447.270699	1.467839	0.068151	3205.418945
9447.271597	1.433254	0.068151	4492.481445
9447.272559	1.395941	0.068151	5835.376953
9447.273486	0.931981	0.068151	6699.323242
9447.274378	0.109988	0.068151	6797.432129
9447.275265	0.087733	0.068151	6875.251465
9447.276219	0.087942	0.068151	6959.147949
9447.277125	0.087777	0.068151	7038.673828
9447.278023	0.087902	0.068151	7117.609375
9447.278951	0.087909	0.068151	7199.188965
9447.279854	0.087964	0.068151	7278.620117
9447.280752	0.087880	0.068151	7357.536133
9447.281641	0.087949	0.068151	7435.723145
9447.282590	0.088099	0.068151	7519.329590
9448.332748	1.015217	0.060711	444.665192
9448.333734	1.477006	0.060711	1900.992676
9448.334644	1.467543	0.060711	3236.456543
9448.335540	1.432888	0.060711	4520.324219
9448.336482	1.396146	0.060711	5835.494141
9448.337411	0.943206	0.060711	6711.731934
9448.338330	0.108442	0.060711	6811.390625
9448.339214	0.087495	0.060711	6888.736328
9448.340164	0.087806	0.060711	6972.152344
9448.341062	0.087784	0.060711	7050.982910
9448.341949	0.087891	0.060711	7128.941895
9448.342866	0.087828	0.060711	7209.480469
9448.343811	0.087821	0.060711	7292.471191
9448.344712	0.087773	0.060711	7371.555176
9448.345602	0.087828	0.060711	7449.722656
9448.346534	0.087872	0.060711	7531.619629
9449.341382	0.989974	0.066508	429.648895
9449.342341	1.474208	0.066508	1843.414185
9449.343263	1.468392	0.066508	3197.271973
9449.344162	1.433207	0.066508	4485.724609
9449.345059	1.397494	0.066508	5739.276367
9449.346033	0.963578	0.066508	6677.801270
9449.346942	0.112280	0.066508	6779.864258
9449.347836	0.087594	0.066508	6858.173340
9449.348765	0.087869	0.066508	6939.803223
9449.349666	0.087982	0.066508	7019.075195
9449.350562	0.087784	0.066508	7097.729980
9449.351452	0.087792	0.066508	7175.864746
9449.352410	0.087865	0.066508	7260.039551
9449.353309	0.087828	0.066508	7338.997070
9449.354206	0.087759	0.066508	7417.716797
9449.355098	0.087865	0.066508	7496.092285
9450.401222	0.994541	0.061138	433.619873
9450.402200	1.474416	0.061138	1875.599243
9450.403111	1.468037	0.061138	3212.980957
9450.404011	1.433218	0.061138	4502.876953
9450.404903	1.397622	0.061138	5749.555664
9450.405872	0.970411	0.061138	6689.884277
9450.406773	0.114042	0.061138	6792.635742
9450.407666	0.087660	0.061138	6870.916016
9450.408598	0.087828	0.061138	6952.771973
9450.409508	0.087997	0.061138	7032.849121
9450.410411	0.087920	0.061138	7112.240723
9450.411300	0.087781	0.061138	7190.277832
9450.412267	0.087909	0.061138	7275.285645
9450.413169	0.087883	0.061138	7354.556152
9450.414067	0.087803	0.061138	7433.402832
9450.414954	0.087675	0.061138	7511.169922
9451.416033	1.021355	0.066790	460.631073
9451.416954	1.474263	0.066790	1818.427124
9451.417860	1.469136	0.066790	3149.464111
9451.418767	1.433939	0.066790	4450.046875
9451.419722	1.396974	0.066790	5784.156738
9451.420639	0.990769	0.066790	6692.691895
9451.421529	0.118539	0.066790	6798.191406
9451.422479	0.087726	0.066790	6881.530762
9451.423386	0.087722	0.066790	6961.094727
9451.424283	0.087810	0.066790	7039.860352
9451.425169	0.087803	0.066790	7117.653809
9451.426109	0.087909	0.066790	7200.288086
9451.427012	0.087766	0.066790	7279.541016
9451.427902	0.087832	0.066790	7357.711426
9451.428826	0.087858	0.066790	7438.892090
9451.429749	0.087828	0.066790	7519.957520
9452.471822	1.038128	0.062926	525.292542
9452.472733	1.476343	0.062926	1870.240723
9452.473636	1.468022	0.062926	3195.864990
9452.474530	1.433412	0.062926	4477.334961
9452.475487	1.396051	0.062926	5813.355957
9452.476409	0.947651	0.062926	6687.090332
9452.477310	0.111218	0.062926	6787.297852
9452.478205	0.087616	0.062926	6865.714355
9452.479148	0.087979	0.062926	6948.678223
9452.480049	0.087762	0.062926	7027.751953
9452.480941	0.087817	0.062926	7106.084961
9452.481879	0.087762	0.062926	7188.406250
9452.482784	0.087836	0.062926	7267.897461
9452.483684	0.087726	0.062926	7346.850586
9452.484569	0.087740	0.062926	7424.500977
9452.485496	0.087891	0.062926	7505.975586
9453.486547	1.008783	0.066693	453.952332
9453.487451	1.473351	0.066693	1785.861572
9453.488396	1.469202	0.066693	3174.257080
9453.489306	1.433613	0.066693	4478.845215
9453.490210	1.398354	0.066693	5742.957520
9453.491109	1.049015	0.066693	6686.021973
9453.492061	0.118568	0.066693	6798.898926
9453.492958	0.087693	0.066693	6877.559570
9453.493864	0.087832	0.066693	6957.135254
9453.494758	0.087949	0.066693	7035.761719
9453.495718	0.087869	0.066693	7120.115723
9453.496625	0.087770	0.066693	7199.723145
9453.497523	0.087876	0.066693	7278.635742
9453.498458	0.087891	0.066693	7360.813477
9453.499359	0.087993	0.066693	7440.095215
9453.500260	0.087880	0.066693	7519.274902
9454.544326	0.993395	0.061706	433.120117
9454.545292	1.476024	0.061706	1858.959473
9454.546214	1.467642	0.061706	3212.125000
9454.547123	1.432584	0.061706	4514.343750
9454.548045	1.396677	0.061706	5802.080078
9454.548987	0.952310	0.061706	6699.155762
9454.549889	0.111207	0.061706	6799.464844
9454.550783	0.087755	0.061706	6877.917969
9454.551722	0.087920	0.061706	6960.474609
9454.552627	0.087719	0.061706	7039.859863
9454.553528	0.087773	0.061706	7118.943848
9454.554412	0.087766	0.061706	7196.529297
9454.555350	0.087850	0.061706	7278.933105
9454.556260	0.087814	0.061706	7358.843750
9454.557158	0.087825	0.061706	7437.710449
9454.558081	0.087777	0.061706	7518.728516
9455.561164	1.004773	0.065384	439.085754
9455.562126	1.475577	0.065384	1858.591064
9455.563045	1.468022	0.065384	3207.703613
9455.563942	1.433178	0.065384	4493.263672
9455.564883	1.396890	0.065384	5807.736816
9455.565807	0.975062	0.065384	6708.694336
9455.566701	0.115649	0.065384	6812.084961
9455.567588	0.087649	0.065384	6889.829590
9455.568523	0.087894	0.065384	6972.010742
9455.569431	0.087839	0.065384	7051.769043
9455.570338	0.087777	0.065384	7131.382812
9455.571246	0.087799	0.065384	7211.104492
9455.572169	0.087968	0.065384	7292.298340
9455.573075	0.087773	0.065384	7371.821289
9455.573962	0.087869	0.065384	7449.760742
9455.574898	0.087927	0.065384	7532.060547
9456.616907	0.991102	0.063374	430.138367
9456.617803	1.470956	0.063374	1748.114746
9456.618774	1.468608	0.063374	3174.133301
9456.619688	1.433144	0.063374	4484.027344
9456.620589	1.397505	0.063374	5743.179199
9456.621529	1.001825	0.063374	6684.894531
9456.622414	0.120956	0.063374	6791.940430
9456.623376	0.087634	0.063374	6876.244629
9456.624288	0.087832	0.063374	6956.347656
9456.625182	0.087982	0.063374	7035.003906
9456.626122	0.087825	0.063374	7117.559082
9456.627020	0.087847	0.063374	7196.445312
9456.627936	0.087806	0.063374	7276.875977
9456.628828	0.087777	0.063374	7355.173340
9456.629774	0.087682	0.063374	7438.120605
9456.630696	0.087740	0.063374	7519.017090
9457.631711	1.013203	0.065666	454.928223
9457.632632	1.473318	0.065666	1811.854004
9457.633528	1.469608	0.065666	3128.622803
9457.634454	1.434390	0.065666	4456.867676
9457.635379	1.397845	0.065666	5749.874512
9457.636310	1.009058	0.065666	6689.307129
9457.637202	0.121205	0.065666	6797.421875
9457.638133	0.087759	0.065666	6879.125488
9457.639043	0.087803	0.065666	6959.025879
9457.639946	0.087781	0.065666	7038.291992
9457.640832	0.087839	0.065666	7116.117676
9457.641785	0.087927	0.065666	7199.912109
9457.642693	0.087792	0.065666	7279.626953
9457.643581	0.087777	0.065666	7357.573242
9457.644509	0.087828	0.065666	7439.078125
9457.645430	0.087957	0.065666	7520.085937
9458.688477	1.017360	0.062793	458.829193
9458.689406	1.474043	0.062793	1828.215088
9458.690308	1.469301	0.062793	3153.524170
9458.691252	1.433628	0.062793	4506.869141
9458.692163	1.397150	0.062793	5779.672363
9458.693066	1.012152	0.062793	6693.645508
9458.693955	0.122941	0.062793	6802.939941
9458.694893	0.087814	0.062793	6885.309082
9458.695797	0.087876	0.062793	6964.749023
9458.696696	0.087894	0.062793	7043.766113
9458.697602	0.087777	0.062793	7123.291992
9458.698529	0.087916	0.062793	7204.790527
9458.699438	0.087850	0.062793	7284.646484
9458.700331	0.087828	0.062793	7363.077148
9458.701272	0.087953	0.062793	7445.840820
9458.702165	0.087814	0.062793	7524.258301
9459.701195	1.018894	0.066310	449.332275
9459.702190	1.477698	0.066310	1919.641479
9459.703104	1.466693	0.066310	3260.198975
9459.704000	1.432258	0.066310	4543.502441
9459.704949	1.395883	0.066310	5868.195312
9459.705874	0.924803	0.066310	6723.638672
9459.706772	0.109259	0.066310	6821.753418
9459.707663	0.087704	0.066310	6899.897461
9459.708610	0.087876	0.066310	6983.116211
9459.709510	0.087810	0.066310	7062.145508
9459.710395	0.087850	0.066310	7139.893066
9459.711313	0.087891	0.066310	7220.576660
9459.712242	0.087817	0.066310	7302.159180
9459.713149	0.087729	0.066310	7381.729980
9459.714037	0.087814	0.066310	7459.708496
9459.714973	0.087814	0.066310	7541.902344
9460.761107	1.051355	0.063502	537.242432
9460.762021	1.476786	0.063502	1887.024780
9460.762926	1.467433	0.063502	3215.051514
9460.763825	1.432504	0.063502	4502.872070
9460.764771	1.395645	0.063502	5823.151855
9460.765697	0.941580	0.063502	6695.054687
9460.766594	0.110208	0.063502	6793.910645
9460.767525	0.087766	0.063502	6875.621094
9460.768433	0.087847	0.063502	6955.385742
9460.769344	0.087759	0.063502	7035.333984
9460.770234	0.087751	0.063502	7113.432617
9460.771175	0.087799	0.063502	7196.051758
9460.772076	0.087825	0.063502	7275.181641
9460.772971	0.087748	0.063502	7353.715820
9460.773862	0.087887	0.063502	7432.022949
9460.774816	0.087891	0.063502	7515.870605
9461.771719	1.001558	0.065895	438.682281
9461.772697	1.475783	0.065895	1881.997559
9461.773631	1.467100	0.065895	3252.268555
9461.774527	1.432222	0.065895	4535.539062
9461.775466	1.395802	0.065895	5846.197266
9461.776402	0.920892	0.065895	6708.152344
9461.777318	0.105059	0.065895	6804.386230
9461.778215	0.087708	0.065895	6883.060059
9461.779152	0.087839	0.065895	6965.365723
9461.780087	0.087777	0.065895	7047.437500
9461.781000	0.087810	0.065895	7127.607910
9461.781889	0.087803	0.065895	7205.664551
9461.782844	0.087762	0.065895	7289.477539
9461.783770	0.087836	0.065895	7370.813477
9461.784659	0.087755	0.065895	7448.827637
9461.785607	0.087755	0.065895	7532.019531
9462.833609	0.996185	0.063398	435.332977
9462.834558	1.475021	0.063398	1835.127686
9462.835472	1.468682	0.063398	3177.502930
9462.836372	1.433936	0.063398	4468.044922
9462.837298	1.398106	0.063398	5762.690430
9462.838223	1.010310	0.063398	6697.227051
9462.839126	0.120359	0.063398	6805.911133
9462.840017	0.087737	0.063398	6884.084473
9462.840958	0.087858	0.063398	6966.758301
9462.841863	0.087850	0.063398	7046.262695
9462.842758	0.087821	0.063398	7124.862305
9462.843650	0.087784	0.063398	7203.166016
9462.844596	0.087898	0.063398	7286.317383
9462.845512	0.087865	0.063398	7366.801758
9462.846408	0.087806	0.063398	7445.476074
9462.847330	0.087854	0.063398	7526.477539
9463.844322	1.020505	0.066544	460.247894
9463.845239	1.473505	0.066544	1811.451660
9463.846146	1.469004	0.066544	3143.838379
9463.847042	1.433990	0.066544	4428.693848
9463.848010	1.397036	0.066544	5781.024902
9463.848937	0.982141	0.066544	6691.469727
9463.849830	0.116774	0.066544	6795.748535
9463.850767	0.087719	0.066544	6877.940918
9463.851676	0.087806	0.066544	6957.756836
9463.852585	0.087931	0.066544	7037.686035
9463.853473	0.087832	0.066544	7115.680664
9463.854419	0.087828	0.066544	7198.766113
9463.855323	0.087711	0.066544	7278.057129
9463.856212	0.087832	0.066544	7356.139648
9463.857126	0.087810	0.066544	7436.397949
9463.858049	0.088011	0.066544	7517.632324
9464.906191	0.995347	0.062399	440.938538
9464.907095	1.472446	0.062399	1772.030029
9464.908042	1.469323	0.062399	3163.478516
9464.908956	1.433676	0.062399	4473.857910
9464.909881	1.397391	0.062399	5766.444824
9464.910784	1.027138	0.062399	6693.950195
9464.911735	0.115591	0.062399	6803.876953
9464.912630	0.087700	0.062399	6882.368652
9464.913544	0.087847	0.062399	6962.660645
9464.914442	0.087733	0.062399	7041.444824
9464.915404	0.087744	0.062399	7125.854492
9464.916302	0.087806	0.062399	7204.704590
9464.917195	0.087832	0.062399	7283.138672
9464.918126	0.087806	0.062399	7364.886230
9464.919039	0.087847	0.062399	7445.090332
9464.919957	0.087861	0.062399	7525.747070
9465.915855	0.995713	0.064203	434.130829
9465.916754	1.471707	0.064203	1757.195068
9465.917705	1.468945	0.064203	3154.162109
9465.918623	1.433811	0.064203	4470.400391
9465.919523	1.398303	0.064203	5728.873047
9465.920471	1.011160	0.064203	6687.452148
9465.921372	0.120135	0.064203	6795.694336
9465.922272	0.087715	0.064203	6874.637695
9465.923160	0.087847	0.064203	6952.645508
9465.924112	0.087997	0.064203	7036.418457
9465.925014	0.087935	0.064203	7115.735352
9465.925910	0.087825	0.064203	7194.426270
9465.926799	0.087847	0.064203	7272.521973
9465.927746	0.087924	0.064203	7355.785645
9465.928654	0.087850	0.064203	7435.553711
9465.929549	0.087971	0.064203	7514.288086
9466.977750	1.004923	0.063579	444.175964
9466.978680	1.473230	0.063579	1814.279785
9466.979577	1.469495	0.063579	3132.416504
9466.980525	1.433393	0.063579	4491.273437
9466.981436	1.397205	0.063579	5764.126953
9466.982347	1.019341	0.063579	6692.746582
9466.983238	0.123534	0.063579	6802.815430
9466.984194	0.087799	0.063579	6886.751465
9466.985102	0.087781	0.063579	6966.456543
9466.986004	0.087847	0.063579	7045.694336
9466.986933	0.087887	0.063579	7127.341309
9466.987834	0.087920	0.063579	7206.557129
9466.988738	0.087729	0.063579	7285.864746
9466.989624	0.087887	0.063579	7363.732422
9466.990555	0.087916	0.063579	7445.582520
9466.991462	0.087887	0.063579	7525.295898
9467.987398	1.002850	0.065098	438.245575
9467.988379	1.476537	0.065098	1886.728271
9467.989293	1.467480	0.065098	3228.005371
9467.990192	1.432727	0.065098	4516.026855
9467.991132	1.396571	0.065098	5828.803711
9467.992058	0.947644	0.065098	6706.322266
9467.992970	0.109662	0.065098	6806.333984
9467.993853	0.087726	0.065098	6883.795898
9467.994793	0.087880	0.065098	6966.402832
9467.995699	0.087675	0.065098	7045.835937
9467.996594	0.087891	0.065098	7124.498047
9467.997523	0.087968	0.065098	7206.219727
9467.998437	0.087744	0.065098	7286.417969
9467.999336	0.087828	0.065098	7365.375488
9468.000223	0.087938	0.065098	7443.376465
9468.001170	0.088000	0.065098	7526.712891
9469.050376	1.062173	0.062459	533.210815
9469.051284	1.476196	0.062459	1873.597046
9469.052192	1.467938	0.062459	3206.484863
9469.053087	1.432786	0.062459	4488.828125
9469.054042	1.396007	0.062459	5822.014648
9469.054969	0.954305	0.062459	6706.655762
9469.055865	0.112163	0.062459	6807.153809
9469.056793	0.087719	0.062459	6888.556641
9469.057699	0.087927	0.062459	6968.218750
9469.058597	0.087832	0.062459	7047.091797
9469.059485	0.087905	0.062459	7125.151855
9469.060432	0.087975	0.062459	7208.463867
9469.061322	0.087876	0.062459	7286.673340
9469.062219	0.087891	0.062459	7365.511230
9469.063114	0.087865	0.062459	7444.150391
9469.064060	0.087876	0.062459	7527.281250
9470.057942	1.011332	0.065972	451.053925
9470.058847	1.472798	0.065972	1783.936035
9470.059744	1.469491	0.065972	3102.069336
9470.060712	1.433599	0.065972	4489.792969
9470.061627	1.397007	0.065972	5768.054199
9470.062533	1.016173	0.065972	6688.707031
9470.063471	0.119392	0.065972	6800.696777
9470.064382	0.087803	0.065972	6880.685059
9470.065281	0.087861	0.065972	6959.672363
9470.066168	0.087788	0.065972	7037.540527
9470.067128	0.087971	0.065972	7121.992676
9470.068033	0.087806	0.065972	7201.457520
9470.068919	0.087887	0.065972	7279.325195
9470.069825	0.087828	0.065972	7358.897461
9470.070743	0.087942	0.065972	7439.627930
9470.071642	0.087744	0.065972	7518.509766
9471.120861	1.014580	0.062463	451.488159
9471.121763	1.472479	0.062463	1779.664429
9471.122663	1.470249	0.062463	3102.888672
9471.123598	1.434913	0.062463	4444.532715
9471.124518	1.398219	0.062463	5730.894043
9471.125452	1.025010	0.062463	6688.252930
9471.126338	0.125856	0.062463	6799.761230
9471.127289	0.087792	0.062463	6883.250977
9471.128197	0.087887	0.062463	6963.052246
9471.129086	0.087858	0.062463	7041.157715
9471.129978	0.087876	0.062463	7119.542969
9471.130920	0.087946	0.062463	7202.387695
9471.131820	0.087839	0.062463	7281.443359
9471.132713	0.087817	0.062463	7359.864258
9471.133640	0.087905	0.062463	7441.352539
9471.134535	0.087880	0.062463	7520.004883
9472.131541	1.005476	0.066330	450.453308
9472.132435	1.472065	0.066330	1766.479736
9472.133398	1.468411	0.066330	3180.559082
9472.134305	1.433181	0.066330	4480.454102
9472.135213	1.397611	0.066330	5749.484863
9472.136113	1.022087	0.066330	6669.363770
9472.137058	0.116832	0.066330	6779.770508
9472.137963	0.087601	0.066330	6859.049805
9472.138868	0.087671	0.066330	6938.392090
9472.139794	0.087821	0.066330	7019.714355
9472.140689	0.087872	0.066330	7098.359863
9472.141593	0.087759	0.066330	7177.693848
9472.142479	0.087821	0.066330	7255.503418
9472.143420	0.087905	0.066330	7338.222168
9472.144324	0.087737	0.066330	7417.536133
9472.145229	0.087847	0.066330	7497.037598
9473.192401	0.997273	0.062914	440.794647
9473.193357	1.475310	0.062914	1851.191040
9473.194274	1.468096	0.062914	3197.434814
9473.195178	1.433273	0.062914	4493.113281
9473.196068	1.397406	0.062914	5736.804687
9473.197021	0.987264	0.062914	6677.667480
9473.197934	0.115880	0.062914	6783.465820
9473.198834	0.087708	0.062914	6862.402344
9473.199770	0.087880	0.062914	6944.657715
9473.200677	0.087953	0.062914	7024.431152
9473.201581	0.087836	0.062914	7103.834473
9473.202469	0.087850	0.062914	7181.845703
9473.203414	0.087876	0.062914	7264.888672
9473.204310	0.087880	0.062914	7343.628906
9473.205210	0.087843	0.062914	7422.687500
9473.206100	0.087872	0.062914	7500.894043
9474.203081	1.010830	0.066238	442.743561
9474.204056	1.476434	0.066238	1882.266968
9474.204968	1.467429	0.066238	3220.562500
9474.205864	1.432925	0.066238	4504.462891
9474.206800	1.396875	0.066238	5811.937500
9474.207730	0.964706	0.066238	6709.113770
9474.208628	0.113994	0.066238	6811.480469
9474.209519	0.087594	0.066238	6889.526855
9474.210460	0.088004	0.066238	6972.338867
9474.211351	0.087872	0.066238	7050.633301
9474.212266	0.087821	0.066238	7130.989746
9474.213168	0.087865	0.066238	7210.244141
9474.214102	0.087905	0.066238	7292.347656
9474.215014	0.087689	0.066238	7372.320312
9474.215902	0.087726	0.066238	7450.220703
9474.216825	0.087909	0.066238	7531.360840
9475.262989	1.059459	0.063104	536.086365
9475.263912	1.476779	0.063104	1899.152832
9475.264820	1.467165	0.063104	3231.339111
9475.265712	1.432086	0.063104	4508.759766
9475.266672	1.394894	0.063104	5847.857910
9475.267600	0.921544	0.063104	6703.050781
9475.268491	0.108812	0.063104	6800.002441
9475.269426	0.087795	0.063104	6882.091309
9475.270344	0.087861	0.063104	6962.748047
9475.271244	0.087792	0.063104	7041.760742
9475.272132	0.087872	0.063104	7119.791504
9475.273070	0.087964	0.063104	7202.301758
9475.273972	0.087784	0.063104	7281.483398
9475.274869	0.087887	0.063104	7360.317871
9475.275756	0.087792	0.063104	7438.188965
9475.276700	0.087975	0.063104	7521.237305
9476.275655	0.998485	0.065770	435.339508
9476.276636	1.476559	0.065770	1883.843750
9476.277553	1.467323	0.065770	3229.378906
9476.278454	1.432441	0.065770	4520.008789
9476.279393	1.396479	0.065770	5831.302734
9476.280314	0.957656	0.065770	6713.304199
9476.281206	0.113665	0.065770	6814.692871
9476.282088	0.087671	0.065770	6892.018555
9476.283025	0.087865	0.065770	6974.348145
9476.283923	0.087935	0.065770	7053.313477
9476.284822	0.087858	0.065770	7132.297363
9476.285710	0.087927	0.065770	7210.376953
9476.286658	0.087949	0.065770	7293.752930
9476.287556	0.087755	0.065770	7372.557129
9476.288451	0.087887	0.065770	7451.215820
9476.289394	0.087861	0.065770	7534.068848
9477.333510	1.031103	0.063269	513.489563
9477.334426	1.476357	0.063269	1865.833008
9477.335349	1.467264	0.063269	3220.117920
9477.336248	1.432570	0.063269	4507.998047
9477.337203	1.395157	0.063269	5840.373535
9477.338119	0.917699	0.063269	6680.985840
9477.339040	0.106857	0.063269	6779.400879
9477.339930	0.087660	0.063269	6857.417969
9477.340883	0.087777	0.063269	6941.069336
9477.341778	0.087722	0.063269	7019.580566
9477.342669	0.087865	0.063269	7097.868164
9477.343600	0.087715	0.063269	7179.530762
9477.344503	0.087810	0.063269	7258.823242
9477.345424	0.087847	0.063269	7339.729980
9477.346334	0.087697	0.063269	7419.533691
9477.347274	0.087806	0.063269	7502.071777
9478.349312	1.045986	0.065734	514.625244
9478.350231	1.476130	0.065734	1871.189087
9478.351134	1.468198	0.065734	3196.972168
9478.352030	1.433262	0.065734	4481.174805
9478.352998	1.395820	0.065734	5832.329102
9478.353917	0.947029	0.065734	6702.648437
9478.354813	0.111562	0.065734	6802.608398
9478.355738	0.087788	0.065734	6883.812500
9478.356656	0.087920	0.065734	6964.522949
9478.357562	0.087729	0.065734	7044.005859
9478.358465	0.087887	0.065734	7123.367676
9478.359409	0.088030	0.065734	7206.467773
9478.360311	0.087960	0.065734	7285.808105
9478.361207	0.087814	0.065734	7364.489258
9478.362093	0.087854	0.065734	7442.328125
9478.363028	0.088011	0.065734	7524.618652
9479.405006	1.003433	0.062483	443.517212
9479.405981	1.474966	0.062483	1881.608887
9479.406886	1.468004	0.062483	3210.152588
9479.407791	1.432983	0.062483	4507.002441
9479.408688	1.397234	0.062483	5760.321289
9479.409654	0.963153	0.062483	6690.727051
9479.410547	0.114115	0.062483	6792.631836
9479.411441	0.087755	0.062483	6871.084961
9479.412373	0.087861	0.062483	6952.971680
9479.413283	0.087975	0.062483	7033.028809
9479.414184	0.087744	0.062483	7112.086426
9479.415075	0.087861	0.062483	7190.371094
9479.416036	0.087935	0.062483	7274.875977
9479.416932	0.087832	0.062483	7353.573242
9479.417829	0.087737	0.062483	7432.272949
9479.418716	0.087810	0.062483	7510.160645
9480.420827	1.004037	0.065605	451.816620
9480.421730	1.473014	0.065605	1781.948242
9480.422627	1.469967	0.065605	3100.508789
9480.423578	1.433635	0.065605	4463.895996
9480.424492	1.397399	0.065605	5741.118164
9480.425423	1.010116	0.065605	6681.536133
9480.426334	0.121494	0.065605	6792.217285
9480.427272	0.087576	0.065605	6874.363281
9480.428166	0.087836	0.065605	6952.888184
9480.429054	0.087788	0.065605	7030.844238
9480.429998	0.087850	0.065605	7113.774902
9480.430892	0.087887	0.065605	7192.345703
9480.431812	0.087733	0.065605	7273.060059
9480.432705	0.087770	0.065605	7351.438477
9480.433650	0.087847	0.065605	7434.453613
9480.434553	0.087729	0.065605	7513.673340
9481.477595	1.007509	0.062044	455.393890
9481.478496	1.472461	0.062044	1782.081177
9481.479448	1.468561	0.062044	3180.151123
9481.480364	1.433353	0.062044	4493.102539
9481.481260	1.398051	0.062044	5745.755859
9481.482205	0.990366	0.062044	6681.651855
9481.483110	0.116305	0.062044	6786.907715
9481.484014	0.087700	0.062044	6866.188477
9481.484901	0.087836	0.062044	6944.098633
9481.485846	0.087990	0.062044	7027.248535
9481.486742	0.087722	0.062044	7105.847656
9481.487641	0.087828	0.062044	7184.805176
9481.488526	0.087803	0.062044	7262.510742
9481.489465	0.087968	0.062044	7345.112305
9481.490364	0.087854	0.062044	7424.093262
9481.491257	0.087821	0.062044	7502.517578
9482.492411	1.056332	0.065847	505.982971
9482.493340	1.476156	0.065847	1877.331787
9482.494250	1.468114	0.065847	3213.315430
9482.495144	1.432533	0.065847	4494.000000
9482.496107	1.395502	0.065847	5837.868164
9482.497026	0.944139	0.065847	6705.532227
9482.497916	0.112284	0.065847	6805.464844
9482.498856	0.087858	0.065847	6888.051270
9482.499766	0.087788	0.065847	6967.938477
9482.500662	0.087806	0.065847	7046.612793
9482.501548	0.087770	0.065847	7124.376953
9482.502488	0.087986	0.065847	7207.083496
9482.503391	0.087909	0.065847	7286.465332
9482.504299	0.087795	0.065847	7366.183594
9482.505192	0.087843	0.065847	7444.627441
9482.506145	0.087913	0.065847	7528.408203
9483.549202	1.045503	0.061504	536.343079
9483.550116	1.476643	0.061504	1885.994873
9483.551026	1.467155	0.061504	3221.105469
9483.551922	1.432335	0.061504	4504.477539
9483.552871	1.395465	0.061504	5828.773926
9483.553791	0.941682	0.061504	6695.121582
9483.554684	0.110841	0.061504	6794.102539
9483.555601	0.087792	0.061504	6874.607422
9483.556522	0.087876	0.061504	6955.541016
9483.557415	0.087839	0.061504	7033.981445
9483.558306	0.087865	0.061504	7112.269043
9483.559246	0.087960	0.061504	7194.951660
9483.560153	0.087898	0.061504	7274.675293
9483.561056	0.087909	0.061504	7354.057129
9483.561946	0.087869	0.061504	7432.260254
9483.562892	0.088070	0.061504	7515.574707
9484.562930	1.047715	0.067080	494.521393
9484.563845	1.474889	0.067080	1844.044678
9484.564740	1.468502	0.067080	3158.354004
9484.565700	1.432262	0.067080	4533.325684
9484.566616	1.396355	0.067080	5812.386719
9484.567521	0.985829	0.067080	6704.562012
9484.568438	0.117166	0.067080	6812.002930
9484.569362	0.087795	0.067080	6893.125977
9484.570273	0.087847	0.067080	6973.154297
9484.571170	0.087905	0.067080	7052.005371
9484.572103	0.087872	0.067080	7133.990234
9484.573012	0.087931	0.067080	7213.919434
9484.573916	0.087821	0.067080	7293.309570
9484.574803	0.087777	0.067080	7371.167969
9484.575749	0.087773	0.067080	7454.201660
9484.576658	0.087781	0.067080	7533.994141
9485.623754	0.993186	0.061033	436.008667
9485.624649	1.471384	0.061033	1752.897461
9485.625623	1.468561	0.061033	3183.275635
9485.626543	1.432804	0.061033	4501.455078
9485.627452	1.397226	0.061033	5771.534180
9485.628393	0.977281	0.061033	6691.156250
9485.629299	0.115419	0.061033	6795.725586
9485.630205	0.087722	0.061033	6875.201660
9485.631096	0.087927	0.061033	6953.544922
9485.632031	0.087920	0.061033	7035.750000
9485.632938	0.087898	0.061033	7115.473633
9485.633838	0.087902	0.061033	7194.584961
9485.634730	0.087847	0.061033	7272.944336
9485.635684	0.088004	0.061033	7356.900391
9485.636599	0.087935	0.061033	7437.360352
9485.637497	0.087883	0.061033	7516.279785
9486.632434	1.037886	0.069013	486.768372
9486.633361	1.474937	0.069013	1854.034668
9486.634258	1.468700	0.069013	3171.458496
9486.635153	1.433346	0.069013	4454.303223
9486.636118	1.396099	0.069013	5801.538574
9486.637035	0.975011	0.069013	6695.623535
9486.637930	0.115283	0.069013	6798.801758
9486.638862	0.087770	0.069013	6880.603027
9486.639775	0.087744	0.069013	6960.713379
9486.640684	0.087832	0.069013	7040.552734
9486.641581	0.087872	0.069013	7119.374023
9486.642527	0.087979	0.069013	7202.601562
9486.643437	0.087777	0.069013	7282.478516
9486.644328	0.087869	0.069013	7360.769531
9486.645226	0.087726	0.069013	7439.547363
9486.646179	0.087898	0.069013	7523.313965
9487.698440	1.064172	0.059772	528.893677
9487.699367	1.476859	0.059772	1897.942017
9487.700277	1.467349	0.059772	3233.229492
9487.701172	1.432225	0.059772	4515.071289
9487.702128	1.395388	0.059772	5849.062500
9487.703053	0.932161	0.059772	6711.311035
9487.703942	0.110596	0.059772	6809.630859
9487.704881	0.087733	0.059772	6892.012207
9487.705778	0.087880	0.059772	6970.840332
9487.706675	0.087839	0.059772	7049.632324
9487.707563	0.087777	0.059772	7127.578613
9487.708501	0.087909	0.059772	7210.037109
9487.709410	0.087876	0.059772	7289.916504
9487.710317	0.087883	0.059772	7369.626465
9487.711207	0.087784	0.059772	7447.754395
9487.712154	0.087792	0.059772	7530.893066
9488.702935	1.010544	0.068159	452.723907
9488.703835	1.472860	0.068159	1778.297974
9488.704782	1.469000	0.068159	3169.441162
9488.705703	1.433269	0.068159	4489.481934
9488.706613	1.397051	0.068159	5760.797852
9488.707516	1.032092	0.068159	6692.777344
9488.708482	0.113394	0.068159	6802.315430
9488.709378	0.087700	0.068159	6880.895020
9488.710276	0.087755	0.068159	6959.699219
9488.711164	0.087817	0.068159	7037.681152
9488.712086	0.088030	0.068159	7118.844727
9488.712995	0.087836	0.068159	7198.687500
9488.713891	0.087979	0.068159	7277.516113
9488.714817	0.087854	0.068159	7358.869141
9488.715722	0.087850	0.068159	7438.373535
9488.716627	0.087817	0.068159	7517.848145
9489.769947	1.006117	0.060546	451.746521
9489.770851	1.472439	0.060546	1782.831543
9489.771813	1.468440	0.060546	3195.470703
9489.772727	1.432881	0.060546	4505.123535
9489.773626	1.397047	0.060546	5761.068848
9489.774531	1.019528	0.060546	6683.741211
9489.775468	0.114448	0.060546	6790.979004
9489.776380	0.087766	0.060546	6871.021484
9489.777273	0.087817	0.060546	6949.442383
9489.778160	0.087795	0.060546	7027.316895
9489.779104	0.087990	0.060546	7110.378906
9489.780008	0.087708	0.060546	7189.666504
9489.780903	0.087740	0.060546	7268.194336
9489.781849	0.087975	0.060546	7351.418457
9489.782757	0.087839	0.060546	7431.176758
9489.783649	0.087788	0.060546	7509.483887
9490.773446	0.994622	0.068204	433.655029
9490.774343	1.471362	0.068204	1753.467041
9490.775316	1.468363	0.068204	3182.184326
9490.776229	1.432932	0.068204	4490.451172
9490.777124	1.397926	0.068204	5741.594727
9490.778077	0.991996	0.068204	6686.966797
9490.778977	0.117865	0.068204	6793.045410
9490.779866	0.087711	0.068204	6871.020508
9490.780759	0.087836	0.068204	6949.458008
9490.781691	0.087880	0.068204	7031.361816
9490.782593	0.087806	0.068204	7110.562988
9490.783496	0.087744	0.068204	7189.795898
9490.784397	0.087898	0.068204	7268.992187
9490.785322	0.087942	0.068204	7350.338379
9490.786229	0.087817	0.068204	7429.988770
9490.787120	0.087858	0.068204	7508.270020
9491.843540	1.000291	0.059905	441.128113
9491.844446	1.472234	0.059905	1774.971924
9491.845340	1.469659	0.059905	3088.847412
9491.846302	1.433584	0.059905	4467.955078
9491.847233	1.397552	0.059905	5769.076172
9491.848138	1.018132	0.059905	6690.485840
9491.849066	0.122596	0.059905	6804.255371
9491.849996	0.087883	0.059905	6885.986816
9491.850918	0.087850	0.059905	6966.984863
9491.851811	0.087850	0.059905	7045.435059
9491.852759	0.087792	0.059905	7128.661621
9491.853655	0.087825	0.059905	7207.352539
9491.854566	0.087909	0.059905	7287.437500
9491.855461	0.087795	0.059905	7366.014160
9491.856411	0.087762	0.059905	7449.388672
9491.857333	0.087916	0.059905	7530.447266
9492.843979	1.004249	0.065782	441.869720
9492.844956	1.476149	0.065782	1884.067017
9492.845873	1.467393	0.065782	3229.666016
9492.846772	1.432401	0.065782	4517.394531
9492.847719	1.396025	0.065782	5839.430664
9492.848640	0.939701	0.065782	6704.895020
9492.849544	0.110175	0.065782	6804.492676
9492.850431	0.087704	0.065782	6882.286133
9492.851370	0.087913	0.065782	6964.835937
9492.852272	0.087898	0.065782	7044.120117
9492.853175	0.087751	0.065782	7123.359863
9492.854060	0.087821	0.065782	7201.081543
9492.855003	0.087898	0.065782	7283.969238
9492.855914	0.087788	0.065782	7363.944336
9492.856807	0.087858	0.065782	7442.401367
9492.857733	0.087872	0.065782	7523.770996
9493.915092	1.008047	0.060654	448.580841
9493.916008	1.473321	0.060654	1798.143188
9493.916915	1.469176	0.060654	3130.686035
9493.917866	1.433068	0.060654	4493.533203
9493.918772	1.397432	0.060654	5759.606445
9493.919682	1.023856	0.060654	6691.315430
9493.920568	0.125424	0.060654	6802.440918
9493.921521	0.087792	0.060654	6886.106445
9493.922421	0.087773	0.060654	6965.102539
9493.923321	0.087788	0.060654	7044.111816
9493.924250	0.087689	0.060654	7125.575195
9493.925154	0.087850	0.060654	7204.991699
9493.926051	0.087784	0.060654	7283.734375
9493.926941	0.087847	0.060654	7361.917969
9493.927889	0.087836	0.060654	7445.186035
9493.928797	0.087850	0.060654	7524.954102
9494.914504	0.995021	0.067398	435.819092
9494.915468	1.475812	0.067398	1858.501587
9494.916390	1.467422	0.067398	3211.464355
9494.917312	1.432137	0.067398	4531.895020
9494.918217	1.395959	0.067398	5795.238281
9494.919183	0.924536	0.067398	6688.340332
9494.920078	0.109010	0.067398	6785.904297
9494.920967	0.087729	0.067398	6863.895996
9494.921918	0.087858	0.067398	6947.448730
9494.922821	0.087858	0.067398	7026.784180
9494.923746	0.087836	0.067398	7108.032227
9494.924631	0.087909	0.067398	7185.831543
9494.925582	0.087777	0.067398	7269.307617
9494.926484	0.087792	0.067398	7348.495605
9494.927373	0.087905	0.067398	7426.643555
9494.928299	0.087880	0.067398	7508.020020
9495.986643	0.999756	0.061653	435.893555
9495.987594	1.473860	0.061653	1837.534302
9495.988502	1.468575	0.061653	3171.000977
9495.989413	1.433536	0.061653	4476.952637
9495.990309	1.397732	0.061653	5729.320312
9495.991278	0.984126	0.061653	6682.938477
9495.992182	0.115704	0.061653	6787.535156
9495.993085	0.087678	0.061653	6866.708496
9495.994010	0.087777	0.061653	6947.902344
9495.994920	0.087858	0.061653	7027.853027
9495.995829	0.087667	0.061653	7107.542480
9495.996723	0.087653	0.061653	7185.903809
9495.997672	0.087792	0.061653	7269.218262
9495.998573	0.087803	0.061653	7348.328613
9495.999470	0.087751	0.061653	7427.041504
9496.000355	0.087719	0.061653	7504.672363
9496.987079	1.003572	0.067869	437.557281
9496.988040	1.475310	0.067869	1855.330078
9496.988962	1.467598	0.067869	3208.455078
9496.989866	1.432969	0.067869	4503.858887
9496.990813	1.396143	0.067869	5826.005859
9496.991729	0.965749	0.067869	6710.632324
9496.992630	0.114012	0.067869	6813.357422
9496.993519	0.087649	0.067869	6891.277344
9496.994455	0.088008	0.067869	6973.652832
9496.995368	0.087861	0.067869	7053.870117
9496.996269	0.087839	0.067869	7133.013184
9496.997189	0.087949	0.067869	7213.926270
9496.998101	0.087975	0.067869	7294.159180
9496.999012	0.087744	0.067869	7374.094238
9496.999909	0.087773	0.067869	7452.827148
9497.000854	0.088052	0.067869	7536.036133
9498.059221	0.998712	0.060356	449.420441
9498.060117	1.471758	0.060356	1768.115356
9498.061062	1.469051	0.060356	3156.369141
9498.061978	1.433646	0.060356	4469.588867
9498.062885	1.398212	0.060356	5737.766602
9498.063785	1.039252	0.060356	6673.093262
9498.064745	0.114393	0.060356	6782.910645
9498.065647	0.087671	0.060356	6861.989746
9498.066570	0.087821	0.060356	6943.048340
9498.067475	0.087700	0.060356	7022.416992
9498.068406	0.087898	0.060356	7104.250000
9498.069311	0.087828	0.060356	7183.734863
9498.070198	0.087708	0.060356	7261.531250
9498.071129	0.087982	0.060356	7343.442871
9498.072038	0.087773	0.060356	7423.229004
9498.072944	0.087766	0.060356	7502.745117
9499.058652	1.017001	0.066242	459.684296
9499.059551	1.472893	0.066242	1783.815186
9499.060506	1.468747	0.066242	3186.468994
9499.061420	1.433342	0.066242	4496.543945
9499.062322	1.397490	0.066242	5757.080078
9499.063228	1.028152	0.066242	6688.585937
9499.064162	0.116301	0.066242	6797.211426
9499.065061	0.087821	0.066242	6876.162598
9499.065968	0.087887	0.066242	6955.875977
9499.066859	0.087872	0.066242	7034.170410
9499.067797	0.087982	0.066242	7116.697754
9499.068708	0.087836	0.066242	7196.716309
9499.069603	0.087843	0.066242	7275.335937
9499.070547	0.087953	0.066242	7358.363281
9499.071441	0.087975	0.066242	7437.012695
9499.072342	0.087920	0.066242	7516.228516
9500.130761	1.000697	0.060441	440.306702
9500.131734	1.475951	0.060441	1876.406982
9500.132644	1.467627	0.060441	3211.947510
9500.133541	1.433181	0.060441	4497.510742
9500.134477	1.397139	0.060441	5805.232422
9500.135404	0.962937	0.060441	6697.875000
9500.136300	0.114686	0.060441	6800.633789
9500.137186	0.087737	0.060441	6878.368652
9500.138135	0.087935	0.060441	6961.818359
9500.139029	0.087828	0.060441	7040.336914
9500.139943	0.087850	0.060441	7120.632324
9500.140837	0.087799	0.060441	7199.124512
9500.141781	0.087854	0.060441	7282.058594
9500.142688	0.087788	0.060441	7361.682617
9500.143578	0.087795	0.060441	7439.820312
9500.144499	0.087891	0.060441	7520.767578
9501.131221	1.004202	0.065396	444.861328
9501.132118	1.471904	0.065396	1765.159424
9501.133020	1.470055	0.065396	3091.148926
9501.133969	1.434038	0.065396	4452.051270
9501.134880	1.397988	0.065396	5725.618652
9501.135796	1.043115	0.065396	6681.112305
9501.136703	0.127573	0.065396	6796.821289
9501.137634	0.087817	0.065396	6878.579102
9501.138544	0.087737	0.065396	6958.419434
9501.139437	0.087788	0.065396	7036.813965
9501.140380	0.087891	0.065396	7119.694824
9501.141280	0.087935	0.065396	7198.835937
9501.142178	0.087942	0.065396	7277.807617
9501.143071	0.087770	0.065396	7356.186035
9501.144006	0.087843	0.065396	7438.319336
9501.144911	0.087810	0.065396	7517.787598
9502.202319	1.000181	0.061303	439.079346
9502.203215	1.471469	0.061303	1757.515137
9502.204179	1.468594	0.061303	3173.239502
9502.205096	1.432972	0.061303	4487.275391
9502.205996	1.397534	0.061303	5745.056152
9502.206957	0.979006	0.061303	6685.881348
9502.207852	0.115503	0.061303	6789.256348
9502.208757	0.087737	0.061303	6868.658203
9502.209649	0.087810	0.061303	6946.984863
9502.210598	0.087946	0.061303	7030.445312
9502.211508	0.087770	0.061303	7110.315918
9502.212404	0.087938	0.061303	7189.108398
9502.213329	0.087861	0.061303	7270.379883
9502.214243	0.087902	0.061303	7350.722168
9502.215155	0.087806	0.061303	7430.801758
9502.216049	0.087828	0.061303	7509.320312
9503.202765	0.989249	0.065585	430.323456
9503.203661	1.470586	0.065585	1747.968506
9503.204644	1.467854	0.065585	3190.869141
9503.205555	1.432020	0.065585	4495.439453
9503.206489	1.395817	0.065585	5799.132324
9503.207410	0.959938	0.065585	6683.234863
9503.208338	0.111160	0.065585	6786.391113
9503.209234	0.087660	0.065585	6864.934570
9503.210121	0.087799	0.065585	6942.812500
9503.211050	0.087755	0.065585	7024.336914
9503.211956	0.087799	0.065585	7103.882812
9503.212873	0.087784	0.065585	7184.381348
9503.213769	0.087836	0.065585	7263.082031
9503.214729	0.087729	0.065585	7347.302246
9503.215631	0.087751	0.065585	7426.454102
9503.216523	0.087876	0.065585	7504.839355
9504.273889	1.014782	0.062423	456.651703
9504.274814	1.473417	0.062423	1819.562134
9504.275713	1.468986	0.062423	3140.180176
9504.276650	1.433881	0.062423	4483.726562
9504.277558	1.397373	0.062423	5752.541016
9504.278478	1.014723	0.062423	6686.085937
9504.279370	0.123157	0.062423	6795.941895
9504.280312	0.087803	0.062423	6878.651855
9504.281212	0.087876	0.062423	6957.740234
9504.282120	0.087938	0.062423	7037.588379
9504.283010	0.087788	0.062423	7115.719727
9504.283949	0.087891	0.062423	7198.249023
9504.284855	0.087726	0.062423	7277.728516
9504.285745	0.087795	0.062423	7355.866211
9504.286664	0.087803	0.062423	7436.557129
9504.287581	0.087927	0.062423	7517.186523
9505.274360	1.011907	0.066483	488.750946
9505.275280	1.475526	0.066483	1846.234985
9505.276215	1.466957	0.066483	3217.839355
9505.277114	1.432562	0.066483	4505.712891
9505.278071	1.395187	0.066483	5840.906738
9505.278983	0.928103	0.066483	6687.336914
9505.279900	0.107556	0.066483	6785.965820
9505.280793	0.087638	0.066483	6864.226562
9505.281731	0.087880	0.066483	6946.657715
9505.282650	0.087817	0.066483	7027.361816
9505.283546	0.087902	0.066483	7106.121582
9505.284484	0.087762	0.066483	7188.442871
9505.285407	0.087828	0.066483	7269.508301
9505.286327	0.087792	0.066483	7350.276855
9505.287217	0.087942	0.066483	7428.544922
9505.288170	0.087861	0.066483	7512.276855
9506.345416	0.992684	0.062000	430.825012
9506.346364	1.472029	0.062000	1826.308350
9506.347288	1.468151	0.062000	3182.879395
9506.348199	1.433192	0.062000	4488.517578
9506.349094	1.398018	0.062000	5739.743164
9506.350071	0.963201	0.062000	6680.790039
9506.350980	0.112112	0.062000	6782.699707
9506.351881	0.087697	0.062000	6861.714355
9506.352766	0.087825	0.062000	6939.439453
9506.353705	0.087876	0.062000	7021.955078
9506.354610	0.087825	0.062000	7101.436523
9506.355497	0.087905	0.062000	7179.408691
9506.356436	0.087979	0.062000	7262.020508
9506.357344	0.087883	0.062000	7341.818359
9506.358241	0.087953	0.062000	7420.711914
9506.359131	0.087755	0.062000	7498.813965
9507.345864	0.999082	0.066947	437.597931
9507.346860	1.476636	0.066947	1908.327026
9507.347776	1.466338	0.066947	3251.492676
9507.348677	1.431599	0.066947	4541.363281
9507.349605	1.395773	0.066947	5836.640625
9507.350540	0.930066	0.066947	6706.251953
9507.351441	0.108893	0.066947	6804.364258
9507.352333	0.087872	0.066947	6882.746582
9507.353289	0.087902	0.066947	6966.780762
9507.354187	0.087861	0.066947	7045.680176
9507.355090	0.087832	0.066947	7124.992676
9507.355975	0.087876	0.066947	7202.762695
9507.356929	0.087997	0.066947	7286.711914
9507.357827	0.087810	0.066947	7365.565430
9507.358728	0.087806	0.066947	7444.679199
9507.359657	0.087953	0.066947	7526.387207
9508.417020	1.014034	0.060932	493.834747
9508.417931	1.475343	0.060932	1837.872314
9508.418862	1.467034	0.060932	3203.680664
9508.419759	1.432874	0.060932	4488.968262
9508.420724	1.395132	0.060932	5835.270508
9508.421640	0.920387	0.060932	6678.344727
9508.422565	0.107194	0.060932	6777.499023
9508.423455	0.087795	0.060932	6855.636719
9508.424393	0.087784	0.060932	6937.978516
9508.425297	0.087762	0.060932	7017.315918
9508.426183	0.087825	0.060932	7095.128418
9508.427109	0.087883	0.060932	7176.508301
9508.428014	0.087708	0.060932	7255.883789
9508.428929	0.087810	0.060932	7336.229980
9508.429817	0.087766	0.060932	7414.166504
9508.430770	0.087799	0.060932	7497.838867
9509.417436	1.011482	0.065404	455.166840
9509.418341	1.473146	0.065404	1788.363770
9509.419285	1.468711	0.065404	3174.826904
9509.420215	1.432592	0.065404	4507.137207
9509.421134	1.396582	0.065404	5790.596191
9509.422044	0.992450	0.065404	6693.725586
9509.422990	0.111691	0.065404	6799.384766
9509.423886	0.087799	0.065404	6878.052734
9509.424785	0.087843	0.065404	6957.023437
9509.425673	0.087817	0.065404	7035.005371
9509.426612	0.087935	0.065404	7117.576172
9509.427517	0.087916	0.065404	7197.140625
9509.428411	0.087766	0.065404	7275.603516
9509.429337	0.087795	0.065404	7356.901855
9509.430245	0.087942	0.065404	7436.752930
9509.431156	0.087872	0.065404	7516.804687
9510.488520	0.990304	0.063019	428.801636
9510.489478	1.473589	0.063019	1840.499756
9510.490400	1.468081	0.063019	3194.070312
9510.491302	1.433643	0.063019	4487.215820
9510.492192	1.398329	0.063019	5731.728516
9510.493131	1.013877	0.063019	6683.758789
9510.494039	0.120436	0.063019	6793.114258
9510.494938	0.087590	0.063019	6871.857910
9510.495870	0.087755	0.063019	6953.645508
9510.496780	0.087913	0.063019	7033.645996
9510.497688	0.087729	0.063019	7113.304199
9510.498584	0.087777	0.063019	7191.952637
9510.499521	0.087916	0.063019	7274.330078
9510.500432	0.087806	0.063019	7354.321777
9510.501332	0.087880	0.063019	7433.413574
9510.502215	0.087850	0.063019	7510.985352
9511.488968	0.990710	0.065992	432.940491
9511.489923	1.474988	0.065992	1841.553955
9511.490839	1.468143	0.065992	3186.373291
9511.491749	1.433156	0.065992	4490.544922
9511.492648	1.397084	0.065992	5746.523437
9511.493613	0.969814	0.065992	6682.394531
9511.494506	0.115620	0.065992	6785.643066
9511.495391	0.087491	0.065992	6863.073242
9511.496331	0.087832	0.065992	6945.635254
9511.497252	0.087902	0.065992	7026.592773
9511.498151	0.087792	0.065992	7105.517578
9511.499038	0.087762	0.065992	7183.362793
9511.499987	0.087905	0.065992	7266.784668
9511.500900	0.087697	0.065992	7346.851562
9511.501799	0.087843	0.065992	7425.822266
9511.502688	0.087902	0.065992	7503.966797
9512.563170	1.016418	0.060385	458.404724
9512.564093	1.473219	0.060385	1818.185791
9512.564989	1.469172	0.060385	3134.564209
9512.565930	1.433236	0.060385	4483.239258
9512.566845	1.397179	0.060385	5761.658203
9512.567766	1.006373	0.060385	6688.527832
9512.568653	0.122073	0.060385	6796.806152
9512.569604	0.087755	0.060385	6880.261230
9512.570507	0.087788	0.060385	6959.533691
9512.571399	0.087861	0.060385	7037.905762
9512.572332	0.087872	0.060385	7119.890625
9512.573239	0.087905	0.060385	7199.620605
9512.574141	0.087810	0.060385	7278.825195
9512.575034	0.087814	0.060385	7357.242676
9512.575965	0.087920	0.060385	7439.096191
9512.576867	0.087935	0.060385	7518.413086
9513.560548	1.018923	0.066802	461.572235
9513.561450	1.472413	0.066802	1789.689087
9513.562380	1.468828	0.066802	3155.699219
9513.563273	1.434042	0.066802	4436.298340
9513.564215	1.396857	0.066802	5752.137207
9513.565154	0.988802	0.066802	6680.622559
9513.566048	0.118359	0.066802	6786.436035
9513.566989	0.087751	0.066802	6869.010254
9513.567891	0.087810	0.066802	6948.214844
9513.568812	0.087748	0.066802	7029.030762
9513.569703	0.087803	0.066802	7107.263184
9513.570656	0.087766	0.066802	7190.904297
9513.571558	0.087839	0.066802	7270.135254
9513.572461	0.087795	0.066802	7349.414551
9513.573415	0.087784	0.066802	7433.160645
9513.574311	0.087803	0.066802	7511.832031
9514.632667	1.009402	0.061315	447.165009
9514.633590	1.473318	0.061315	1807.037476
9514.634497	1.469165	0.061315	3139.570068
9514.635437	1.433804	0.061315	4487.345703
9514.636359	1.397069	0.061315	5775.443359
9514.637284	0.990956	0.061315	6692.077637
9514.638178	0.118678	0.061315	6798.175781
9514.639126	0.087869	0.061315	6881.475098
9514.640029	0.087821	0.061315	6960.777344
9514.640923	0.087905	0.061315	7039.364746
9514.641809	0.087792	0.061315	7117.148437
9514.642745	0.087814	0.061315	7199.342285
9514.643655	0.087825	0.061315	7279.262695
9514.644548	0.087902	0.061315	7357.758789
9514.645484	0.087902	0.061315	7440.034668
9514.646389	0.087946	0.061315	7519.625488
9515.633114	1.010035	0.066963	454.515930
9515.634011	1.472150	0.066963	1775.034180
9515.634908	1.470084	0.066963	3093.699707
9515.635862	1.433760	0.066963	4461.506348
9515.636776	1.397882	0.066963	5739.170410
9515.637685	1.042430	0.066963	6686.739746
9515.638593	0.127445	0.066963	6802.459961
9515.639517	0.087733	0.066963	6883.525391
9515.640424	0.087810	0.066963	6963.168945
9515.641313	0.087777	0.066963	7041.202637
9515.642249	0.087821	0.066963	7123.403320
9515.643152	0.087891	0.066963	7202.768555
9515.644051	0.087847	0.066963	7281.742676
9515.644940	0.087847	0.066963	7359.838379
9515.645881	0.087927	0.066963	7442.578125
9515.646775	0.087843	0.066963	7521.109863
9516.704204	0.993387	0.060832	435.103699
9516.705101	1.471315	0.060832	1754.873047
9516.706086	1.467594	0.060832	3200.453125
9516.707006	1.432071	0.060832	4517.958984
9516.707906	1.396802	0.060832	5775.080566
9516.708856	0.961392	0.060832	6688.402344
9516.709764	0.112976	0.060832	6790.984375
9516.710657	0.087704	0.060832	6869.303711
9516.711546	0.087795	0.060832	6947.354004
9516.712474	0.087883	0.060832	7028.909668
9516.713379	0.087755	0.060832	7108.328125
9516.714280	0.087803	0.060832	7187.438477
9516.715206	0.087740	0.060832	7268.686035
9516.716124	0.087971	0.060832	7349.443359
9516.717034	0.087795	0.060832	7429.337402
9516.717928	0.087762	0.060832	7507.796875
9517.705691	1.007659	0.068175	446.392822
9517.706606	1.472911	0.068175	1794.106689
9517.707518	1.469246	0.068175	3134.058594
9517.708448	1.434130	0.068175	4467.798828
9517.709364	1.397827	0.068175	5748.208496
9517.710287	1.014232	0.068175	6684.344727
9517.711176	0.123406	0.068175	6794.052246
9517.712119	0.087726	0.068175	6876.777832
9517.713023	0.087708	0.068175	6956.065430
9517.713917	0.087858	0.068175	7034.610352
9517.714805	0.087836	0.068175	7112.608398
9517.715733	0.087869	0.068175	7194.150391
9517.716642	0.087751	0.068175	7273.916504
9517.717538	0.087828	0.068175	7352.610840
9517.718453	0.087733	0.068175	7432.886719
9517.719359	0.087916	0.068175	7512.539062
9518.775834	1.080136	0.060364	561.670532
9518.776758	1.476757	0.060364	1926.193604
9518.777657	1.466964	0.060364	3244.994141
9518.778547	1.431713	0.060364	4519.218262
9518.779499	1.394846	0.060364	5847.111816
9518.780422	0.935892	0.060364	6710.940430
9518.781310	0.110848	0.060364	6809.374023
9518.782248	0.087719	0.060364	6891.653809
9518.783167	0.087788	0.060364	6972.331055
9518.784071	0.087759	0.060364	7051.665039
9518.784958	0.087803	0.060364	7129.545898
9518.785910	0.087751	0.060364	7213.085449
9518.786820	0.087788	0.060364	7292.972656
9518.787716	0.087726	0.060364	7371.575195
9518.788601	0.087792	0.060364	7449.270996
9518.789545	0.087784	0.060364	7532.139648
9519.778309	1.028990	0.068224	514.495178
9519.779232	1.476573	0.068224	1877.372559
9519.780139	1.466997	0.068224	3207.938965
9519.781035	1.432786	0.068224	4491.714844
9519.781985	1.395769	0.068224	5817.695312
9519.782899	0.958894	0.068224	6694.124512
9519.783792	0.113467	0.068224	6795.450195
9519.784679	0.087722	0.068224	6873.259766
9519.785639	0.087839	0.068224	6957.585449
9519.786544	0.087722	0.068224	7036.974121
9519.787440	0.087700	0.068224	7115.553711
9519.788364	0.087898	0.068224	7196.771484
9519.789263	0.087927	0.068224	7275.817871
9519.790156	0.087784	0.068224	7354.209473
9519.791043	0.087686	0.068224	7431.986328
9519.791985	0.087850	0.068224	7514.741211
9520.845255	0.991465	0.060864	430.295746
9520.846215	1.475255	0.060864	1846.540649
9520.847128	1.468033	0.060864	3186.855225
9520.848022	1.433430	0.060864	4468.341797
9520.848941	1.397432	0.060864	5752.581543
9520.849892	0.985166	0.060864	6689.474609
9520.850792	0.116591	0.060864	6794.406250
9520.851680	0.087755	0.060864	6872.333008
9520.852623	0.087784	0.060864	6955.113770
9520.853518	0.087828	0.060864	7033.720215
9520.854438	0.087759	0.060864	7114.458496
9520.855324	0.087869	0.060864	7192.310059
9520.856271	0.087909	0.060864	7275.559570
9520.857176	0.087740	0.060864	7354.964844
9520.858069	0.087854	0.060864	7433.418457
9520.858984	0.087850	0.060864	7513.801758
9521.852898	1.018429	0.065932	464.403595
9521.853797	1.472739	0.065932	1788.396118
9521.854735	1.468865	0.065932	3166.191406
9521.855658	1.433089	0.065932	4488.933105
9521.856569	1.397153	0.065932	5761.739746
9521.857474	1.018524	0.065932	6683.503906
9521.858409	0.117854	0.065932	6793.697266
9521.859320	0.087616	0.065932	6873.515625
9521.860224	0.087821	0.065932	6952.905762
9521.861113	0.087744	0.065932	7030.910156
9521.862059	0.087920	0.065932	7114.082520
9521.862964	0.087832	0.065932	7193.570312
9521.863854	0.087810	0.065932	7271.721191
9521.864792	0.087854	0.065932	7354.128418
9521.865703	0.087876	0.065932	7434.183594
9521.866599	0.087726	0.065932	7512.786133
9522.914816	1.036366	0.061444	507.819336
9522.915737	1.476101	0.061444	1867.308472
9522.916649	1.467356	0.061444	3205.537109
9522.917547	1.432994	0.061444	4492.366211
9522.918503	1.395502	0.061444	5826.465820
9522.919429	0.941733	0.061444	6698.510742
9522.920321	0.111471	0.061444	6797.942871
9522.921239	0.087759	0.061444	6878.505371
9522.922165	0.087865	0.061444	6959.868164
9522.923078	0.087733	0.061444	7039.968750
9522.923974	0.087777	0.061444	7118.617187
9522.924903	0.087836	0.061444	7200.216309
9522.925803	0.087792	0.061444	7279.229004
9522.926708	0.087799	0.061444	7358.687012
9522.927598	0.087766	0.061444	7436.798828
9522.928554	0.087883	0.061444	7520.815430
9523.925499	1.017246	0.067635	495.398865
9523.926414	1.475574	0.067635	1845.548828
9523.927337	1.467169	0.067635	3199.746094
9523.928246	1.432262	0.067635	4501.672363
9523.929192	1.395092	0.067635	5821.428711
9523.930113	0.924752	0.067635	6673.125488
9523.931047	0.105319	0.067635	6771.493164
9523.931937	0.087675	0.067635	6849.523437
9523.932887	0.087817	0.067635	6932.949707
9523.933782	0.087920	0.067635	7011.638184
9523.934667	0.087806	0.067635	7089.346680
9523.935600	0.087836	0.067635	7171.297363
9523.936508	0.087704	0.067635	7250.932617
9523.937432	0.087748	0.067635	7332.011719
9523.938327	0.087781	0.067635	7410.575684
9523.939268	0.087722	0.067635	7493.122070
9524.985317	1.019344	0.061464	462.782379
9524.986237	1.473929	0.061464	1818.797363
9524.987134	1.469095	0.061464	3136.575928
9524.988073	1.433035	0.061464	4482.195312
9524.988985	1.397102	0.061464	5756.352539
9524.989900	1.016451	0.061464	6686.405762
9524.990787	0.123354	0.061464	6795.821289
9524.991742	0.087704	0.061464	6879.578613
9524.992656	0.087795	0.061464	6959.823730
9524.993549	0.087843	0.061464	7038.267578
9524.994475	0.087755	0.061464	7119.528809
9524.995377	0.087814	0.061464	7198.736816
9524.996274	0.087751	0.061464	7277.449707
9524.997161	0.087773	0.061464	7355.304687
9524.998101	0.087916	0.061464	7437.945801
9524.999008	0.087810	0.061464	7517.589355
9525.998096	1.062942	0.067015	515.526855
9525.999016	1.475918	0.067015	1873.371338
9525.999924	1.467594	0.067015	3205.946777
9526.000816	1.432874	0.067015	4484.070312
9526.001764	1.396311	0.067015	5807.772949
9526.002687	0.969467	0.067015	6702.590332
9526.003578	0.115470	0.067015	6805.474121
9526.004523	0.087675	0.067015	6888.326660
9526.005421	0.087653	0.067015	6967.038574
9526.006318	0.087773	0.067015	7045.771484
9526.007210	0.087762	0.067015	7124.055664
9526.008138	0.087960	0.067015	7205.682617
9526.009040	0.087828	0.067015	7284.903809
9526.009948	0.087660	0.067015	7364.499023
9526.010834	0.087916	0.067015	7442.393066
9526.011773	0.087817	0.067015	7524.853516
9527.056841	0.995501	0.062407	434.038208
9527.057734	1.470641	0.062407	1747.320557
9527.058710	1.467975	0.062407	3180.063965
9527.059624	1.433071	0.062407	4489.891113
9527.060522	1.397589	0.062407	5744.926270
9527.061479	0.986133	0.062407	6688.655273
9527.062382	0.116367	0.062407	6793.734863
9527.063275	0.087762	0.062407	6872.106934
9527.064163	0.087839	0.062407	6950.108398
9527.065113	0.087953	0.062407	7033.663574
9527.066016	0.087913	0.062407	7113.048828
9527.066915	0.087806	0.062407	7191.986816
9527.067810	0.087872	0.062407	7270.632324
9527.068754	0.087993	0.062407	7353.697754
9527.069659	0.087843	0.062407	7433.195801
9527.070548	0.087832	0.062407	7511.278320
9528.070620	1.027958	0.065573	466.692841
9528.071599	1.476921	0.065573	1912.598999
9528.072512	1.466371	0.065573	3251.395508
9528.073410	1.431628	0.065573	4536.998047
9528.074348	1.395524	0.065573	5845.999023
9528.075261	0.949076	0.065573	6712.505371
9528.076159	0.112174	0.065573	6813.237793
9528.077043	0.087675	0.065573	6890.742187
9528.077977	0.087880	0.065573	6972.821777
9528.078882	0.087733	0.065573	7052.220215
9528.079773	0.087759	0.065573	7130.413086
9528.080665	0.087737	0.065573	7208.674316
9528.081593	0.087964	0.065573	7290.304687
9528.082499	0.087726	0.065573	7369.784180
9528.083389	0.087880	0.065573	7447.997070
9528.084313	0.087927	0.065573	7529.241699
9529.127420	1.021688	0.061790	499.605530
9529.128339	1.475885	0.061790	1855.943848
9529.129244	1.467770	0.061790	3184.275391
9529.130137	1.433185	0.061790	4464.109375
9529.131090	1.396267	0.061790	5794.751953
9529.132016	0.962809	0.061790	6686.312988
9529.132914	0.113987	0.061790	6788.673340
9529.133798	0.087645	0.061790	6866.151855
9529.134740	0.087935	0.061790	6948.986328
9529.135652	0.087898	0.061790	7029.149414
9529.136547	0.087803	0.061790	7107.732910
9529.137480	0.087839	0.061790	7189.687012
9529.138385	0.087876	0.061790	7269.214844
9529.139286	0.087788	0.061790	7348.312012
9529.140177	0.087938	0.061790	7426.665039
9529.141120	0.087905	0.061790	7509.559570
9530.142183	1.015485	0.067607	463.061005
9530.143087	1.472867	0.067607	1794.533081
9530.143977	1.469363	0.067607	3102.265869
9530.144920	1.433489	0.067607	4454.045898
9530.145832	1.397626	0.067607	5728.680664
9530.146732	1.054501	0.067607	6677.731445
9530.147659	0.129730	0.067607	6797.991211
9530.148581	0.087719	0.067607	6878.867676
9530.149494	0.087667	0.067607	6958.907715
9530.150381	0.087700	0.067607	7036.697754
9530.151336	0.087828	0.067607	7120.573730
9530.152245	0.087777	0.067607	7200.363281
9530.153144	0.087755	0.067607	7279.255371
9530.154032	0.087854	0.067607	7357.269531
9530.154973	0.087865	0.067607	7439.950684
9530.155878	0.087645	0.067607	7519.269531
9531.198950	1.028979	0.063909	475.388489
9531.199845	1.472985	0.063909	1793.709717
9531.200811	1.467458	0.063909	3211.274658
9531.201729	1.432053	0.063909	4525.899414
9531.202634	1.396509	0.063909	5789.739746
9531.203535	0.986067	0.063909	6678.186035
9531.204471	0.112269	0.063909	6783.270020
9531.205382	0.087726	0.063909	6863.188477
9531.206277	0.087777	0.063909	6941.749023
9531.207209	0.087927	0.063909	7023.697266
9531.208115	0.087894	0.063909	7103.329590
9531.209019	0.087762	0.063909	7182.666992
9531.209908	0.087748	0.063909	7260.674805
9531.210856	0.087920	0.063909	7344.022949
9531.211758	0.087913	0.063909	7423.320312
9531.212659	0.087726	0.063909	7502.361328
9532.214725	1.003960	0.065625	437.726501
9532.215705	1.475830	0.065625	1884.040039
9532.216636	1.466521	0.065625	3249.371094
9532.217549	1.431127	0.065625	4555.989746
9532.218505	1.394326	0.065625	5888.965332
9532.219435	0.884359	0.065625	6711.419434
9532.220355	0.102667	0.065625	6805.873047
9532.221239	0.087609	0.065625	6883.318848
9532.222207	0.087777	0.065625	6968.287109
9532.223109	0.087821	0.065625	7047.501465
9532.224029	0.087803	0.065625	7128.279785
9532.224922	0.087737	0.065625	7206.628906
9532.225862	0.087784	0.065625	7289.146484
9532.226778	0.087784	0.065625	7369.557129
9532.227671	0.087817	0.065625	7447.978027
9532.228609	0.087957	0.065625	7530.481445
9533.270550	1.064088	0.065041	545.877197
9533.271470	1.476346	0.065041	1904.115967
9533.272374	1.466686	0.065041	3230.000000
9533.273273	1.431577	0.065041	4516.987793
9533.274223	1.394974	0.065041	5842.213379
9533.275144	0.936368	0.065041	6704.608887
9533.276046	0.109094	0.065041	6803.011719
9533.276979	0.087722	0.065041	6884.856445
9533.277885	0.087751	0.065041	6964.359375
9533.278787	0.087788	0.065041	7043.544434
9533.279684	0.087700	0.065041	7122.211426
9533.280620	0.087861	0.065041	7204.449707
9533.281519	0.087748	0.065041	7283.334961
9533.282417	0.087828	0.065041	7362.205078
9533.283313	0.087773	0.065041	7440.850098
9533.284273	0.087773	0.065041	7525.112793
9534.286281	0.994006	0.064783	435.374786
9534.287258	1.476006	0.064783	1877.432495
9534.288167	1.467140	0.064783	3211.062744
9534.289071	1.432570	0.064783	4506.105469
9534.289966	1.396754	0.064783	5756.200195
9534.290935	0.957697	0.064783	6684.208008
9534.291844	0.112522	0.064783	6786.490723
9534.292732	0.087638	0.064783	6864.312988
9534.293662	0.087832	0.064783	6945.996582
9534.294575	0.087902	0.064783	7026.250977
9534.295472	0.087931	0.064783	7105.125000
9534.296361	0.087887	0.064783	7183.256348
9534.297313	0.087858	0.064783	7266.896973
9534.298211	0.087795	0.064783	7345.737305
9534.299109	0.087854	0.064783	7424.630371
9534.299995	0.087810	0.064783	7502.430176
9535.343050	0.995054	0.063023	436.828583
9535.343948	1.471051	0.063023	1757.832397
9535.344941	1.467246	0.063023	3214.807617
9535.345850	1.431929	0.063023	4516.430664
9535.346751	1.396736	0.063023	5774.889648
9535.347699	0.968364	0.063023	6692.898926
9535.348601	0.114697	0.063023	6796.355957
9535.349517	0.087656	0.063023	6876.648926
9535.350408	0.087872	0.063023	6954.943359
9535.351352	0.087854	0.063023	7037.877441
9535.352256	0.087836	0.063023	7117.280762
9535.353178	0.087825	0.063023	7198.255371
9535.354066	0.087810	0.063023	7276.230469
9535.355023	0.087762	0.063023	7360.219238
9535.355931	0.087726	0.063023	7439.874512
9535.356819	0.087810	0.063023	7517.849609
9536.358870	1.005428	0.063873	445.404785
9536.359763	1.471425	0.063873	1759.386963
9536.360723	1.468477	0.063873	3169.124512
9536.361632	1.433265	0.063873	4471.962891
9536.362533	1.397904	0.063873	5731.474609
9536.363482	1.000474	0.063873	6680.923828
9536.364388	0.117623	0.063873	6787.490723
9536.365293	0.087686	0.063873	6866.846191
9536.366185	0.087722	0.063873	6945.094238
9536.367139	0.087993	0.063873	7029.039551
9536.368043	0.087836	0.063873	7108.442871
9536.368938	0.087788	0.063873	7187.013184
9536.369847	0.087975	0.063873	7266.982422
9536.370766	0.087883	0.063873	7347.747070
9536.371668	0.087799	0.063873	7426.941895
9536.372560	0.087751	0.063873	7505.216309
9537.415625	0.998588	0.063595	436.382782
9537.416582	1.471835	0.063595	1844.928711
9537.417500	1.467832	0.063595	3192.398437
9537.418403	1.432983	0.063595	4486.382324
9537.419298	1.397747	0.063595	5737.365234
9537.420253	0.983745	0.063595	6676.841797
9537.421157	0.115840	0.063595	6781.561035
9537.422061	0.087762	0.063595	6860.898437
9537.422949	0.087858	0.063595	6938.916016
9537.423907	0.087869	0.063595	7023.094238
9537.424816	0.087814	0.063595	7102.916992
9537.425716	0.087762	0.063595	7181.903320
9537.426648	0.087920	0.063595	7263.844727
9537.427549	0.087869	0.063595	7343.014160
9537.428447	0.087806	0.063595	7421.864258
9537.429335	0.087876	0.063595	7499.897949
9538.429400	1.005612	0.064977	444.480286
9538.430303	1.471948	0.064977	1773.649414
9538.431262	1.467953	0.064977	3181.416016
9538.432180	1.432419	0.064977	4496.376953
9538.433076	1.397644	0.064977	5748.666016
9538.434027	0.986913	0.064977	6687.220215
9538.434935	0.116027	0.064977	6792.572266
9538.435854	0.087697	0.064977	6873.165527
9538.436743	0.087737	0.064977	6951.163574
9538.437689	0.087693	0.064977	7034.121094
9538.438580	0.087788	0.064977	7112.340332
9538.439494	0.087777	0.064977	7192.568359
9538.440389	0.087773	0.064977	7271.125488
9538.441340	0.087700	0.064977	7354.528320
9538.442246	0.087762	0.064977	7434.041016
9538.443131	0.087649	0.064977	7511.610352
9539.486156	1.012855	0.063337	446.669128
9539.487109	1.475167	0.063337	1852.503662
9539.488033	1.467433	0.063337	3208.411621
9539.488936	1.432621	0.063337	4502.068359
9539.489884	1.395773	0.063337	5825.260742
9539.490813	0.946501	0.063337	6704.560547
9539.491716	0.110391	0.063337	6804.243164
9539.492605	0.087751	0.063337	6882.254395
9539.493555	0.087920	0.063337	6965.778320
9539.494463	0.087733	0.063337	7045.439941
9539.495356	0.087876	0.063337	7123.913086
9539.496281	0.087847	0.063337	7205.171387
9539.497188	0.087872	0.063337	7284.871582
9539.498094	0.087836	0.063337	7364.450684
9539.498991	0.087795	0.063337	7443.203125
9539.499921	0.087942	0.063337	7524.989258
9540.500939	0.997793	0.064421	437.033295
9540.501843	1.471666	0.064421	1767.419556
9540.502757	1.469440	0.064421	3110.487305
9540.503693	1.434100	0.064421	4452.805176
9540.504624	1.397388	0.064421	5753.772949
9540.505527	1.030840	0.064421	6684.621094
9540.506465	0.121150	0.064421	6798.259766
9540.507376	0.087773	0.064421	6878.221191
9540.508272	0.087773	0.064421	6956.866211
9540.509164	0.087737	0.064421	7035.127441
9540.510112	0.087828	0.064421	7118.388672
9540.511019	0.087777	0.064421	7198.002441
9540.511915	0.087869	0.064421	7276.732910
9540.512836	0.087770	0.064421	7357.568848
9540.513746	0.087957	0.064421	7437.609375
9540.514655	0.087733	0.064421	7517.358887
9541.558723	0.990194	0.063116	428.754028
9541.559684	1.473263	0.063116	1844.559692
9541.560596	1.468162	0.063116	3183.522949
9541.561504	1.433152	0.063116	4484.824707
9541.562399	1.397780	0.063116	5735.837402
9541.563369	0.973499	0.063116	6680.130859
9541.564275	0.114745	0.063116	6784.089844
9541.565165	0.087583	0.063116	6862.038574
9541.566096	0.087865	0.063116	6943.840820
9541.566999	0.088008	0.063116	7023.312012
9541.567911	0.087799	0.063116	7103.384766
9541.568811	0.087810	0.063116	7182.414062
9541.569740	0.087762	0.063116	7263.945312
9541.570641	0.087792	0.063116	7343.045898
9541.571545	0.087810	0.063116	7422.426270
9541.572435	0.087766	0.063116	7500.538086
9542.572493	1.012460	0.064570	449.532074
9542.573453	1.474918	0.064570	1865.453613
9542.574361	1.467715	0.064570	3198.138672
9542.575262	1.432892	0.064570	4489.174316
9542.576202	1.396666	0.064570	5802.040527
9542.577126	0.974685	0.064570	6702.649414
9542.578027	0.114862	0.064570	6806.140137
9542.578918	0.087616	0.064570	6884.206055
9542.579868	0.087960	0.064570	6967.768066
9542.580764	0.087803	0.064570	7046.439453
9542.581658	0.087682	0.064570	7124.827148
9542.582567	0.087876	0.064570	7204.706543
9542.583481	0.087821	0.064570	7284.975098
9542.584382	0.087744	0.064570	7364.032715
9542.585273	0.087792	0.064570	7442.255371
9542.586200	0.087839	0.064570	7523.682617
9543.630296	1.010717	0.063071	448.758148
9543.631212	1.472161	0.063071	1797.257324
9543.632115	1.469509	0.063071	3124.224121
9543.633071	1.433489	0.063071	4494.639648
9543.633989	1.397135	0.063071	5777.209473
9543.634886	1.017253	0.063071	6689.685547
9543.635779	0.123933	0.063071	6800.357910
9543.636714	0.087759	0.063071	6882.412598
9543.637628	0.087678	0.063071	6962.550293
9543.638526	0.087821	0.063071	7041.413574
9543.639415	0.087751	0.063071	7119.424805
9543.640364	0.087836	0.063071	7202.780762
9543.641269	0.087773	0.063071	7282.215820
9543.642159	0.087814	0.063071	7360.370117
9543.643103	0.087817	0.063071	7443.269531
9543.644004	0.087671	0.063071	7522.261230
9544.645063	0.990231	0.065448	428.769897
9544.646007	1.472597	0.065448	1818.901001
9544.646922	1.468356	0.065448	3162.446289
9544.647833	1.433448	0.065448	4468.317871
9544.648732	1.398160	0.065448	5725.264160
9544.649702	0.983899	0.065448	6679.645996
9544.650605	0.115935	0.065448	6784.335449
9544.651506	0.087671	0.065448	6863.327148
9544.652425	0.087828	0.065448	6944.041504
9544.653345	0.088048	0.065448	7025.045898
9544.654253	0.087755	0.065448	7104.727539
9544.655143	0.087781	0.065448	7182.852539
9544.656078	0.087861	0.065448	7265.002930
9544.656985	0.087781	0.065448	7344.620117
9544.657891	0.087693	0.065448	7424.069824
9544.658779	0.087810	0.065448	7502.044922
9545.701837	0.993926	0.063357	438.321259
9545.702734	1.470934	0.063357	1757.748901
9545.703703	1.467605	0.063357	3179.858154
9545.704617	1.432284	0.063357	4488.965820
9545.705555	1.395780	0.063357	5798.207520
9545.706469	0.960447	0.063357	6676.055664
9545.707405	0.109497	0.063357	6778.544922
9545.708308	0.087678	0.063357	6857.718262
9545.709194	0.087817	0.063357	6935.524414
9545.710143	0.087799	0.063357	7018.845703
9545.711054	0.087821	0.063357	7098.850586
9545.711975	0.087854	0.063357	7179.764160
9545.712865	0.087792	0.063357	7257.898926
9545.713814	0.087883	0.063357	7341.300293
9545.714708	0.087902	0.063357	7419.884277
9545.715596	0.087876	0.063357	7497.917969
9546.716624	0.997804	0.065247	438.035950
9546.717524	1.471271	0.065247	1762.179687
9546.718421	1.470256	0.065247	3080.999756
9546.719394	1.433408	0.065247	4475.706055
9546.720296	1.397739	0.065247	5736.466797
9546.721211	1.034963	0.065247	6683.458008
9546.722104	0.126229	0.065247	6796.180664
9546.723050	0.087744	0.065247	6879.186523
9546.723951	0.087748	0.065247	6958.247070
9546.724848	0.087792	0.065247	7036.996094
9546.725773	0.087883	0.065247	7118.288086
9546.726679	0.087909	0.065247	7197.933594
9546.727589	0.087733	0.065247	7277.770996
9546.728476	0.087839	0.065247	7355.684570
9546.729431	0.087872	0.065247	7439.602539
9546.730331	0.087850	0.065247	7518.667969
9547.773399	1.016854	0.061895	457.584442
9547.774303	1.472457	0.061895	1788.685791
9547.775203	1.469213	0.061895	3110.977051
9547.776164	1.433060	0.061895	4488.147949
9547.777078	1.396999	0.061895	5765.005371
9547.777985	1.022823	0.061895	6692.706055
9547.778927	0.122615	0.061895	6808.208984
9547.779827	0.087777	0.061895	6887.208496
9547.780724	0.087755	0.061895	6965.924805
9547.781613	0.087803	0.061895	7043.981445
9547.782556	0.088004	0.061895	7126.969238
9547.783459	0.087854	0.061895	7206.301270
9547.784363	0.087839	0.061895	7285.708008
9547.785249	0.087810	0.061895	7363.507812
9547.786201	0.087898	0.061895	7447.186523
9547.787106	0.087858	0.061895	7526.697754
9548.789241	1.018290	0.065073	494.888855
9548.790160	1.475255	0.065073	1850.648437
9548.791068	1.467869	0.065073	3183.473145
9548.791961	1.433156	0.065073	4463.281250
9548.792917	1.396315	0.065073	5798.158203
9548.793841	0.959289	0.065073	6684.541504
9548.794733	0.113716	0.065073	6785.976074
9548.795626	0.087722	0.065073	6864.312012
9548.796574	0.087832	0.065073	6947.576660
9548.797483	0.087828	0.065073	7027.412598
9548.798372	0.087836	0.065073	7105.498535
9548.799310	0.087938	0.065073	7187.984375
9548.800218	0.087828	0.065073	7267.732422
9548.801117	0.087898	0.065073	7346.752441
9548.802005	0.087821	0.065073	7424.737305
9548.802967	0.087803	0.065073	7509.203613
9549.844942	1.005637	0.062967	443.485992
9549.845925	1.476621	0.062967	1895.004395
9549.846848	1.466367	0.062967	3248.461426
9549.847746	1.431453	0.062967	4533.905762
9549.848679	1.395458	0.062967	5835.867676
9549.849591	0.958015	0.062967	6709.577637
9549.850486	0.113481	0.062967	6811.143555
9549.851376	0.087817	0.062967	6889.300781
9549.852324	0.087843	0.062967	6972.576172
9549.853222	0.087839	0.062967	7051.456055
9549.854125	0.087693	0.062967	7130.642578
9549.855014	0.087777	0.062967	7208.676270
9549.855965	0.087891	0.062967	7292.260254
9549.856870	0.087766	0.062967	7371.688477
9549.857775	0.087821	0.062967	7451.166504
9549.858704	0.087847	0.062967	7532.775879
9550.859741	1.014133	0.065428	455.345825
9550.860641	1.472318	0.065428	1780.432129
9550.861535	1.469524	0.065428	3094.186523
9550.862487	1.433653	0.065428	4459.024414
9550.863403	1.397655	0.065428	5739.276367
9550.864310	1.039171	0.065428	6681.804687
9550.865248	0.126207	0.065428	6800.187012
9550.866158	0.087638	0.065428	6879.937500
9550.867055	0.087755	0.065428	6958.653809
9550.867943	0.087836	0.065428	7036.651855
9550.868883	0.087894	0.065428	7119.272461
9550.869786	0.087799	0.065428	7198.555176
9550.870691	0.087854	0.065428	7278.062988
9550.871575	0.087843	0.065428	7355.716309
9550.872510	0.087891	0.065428	7437.894043
9550.873419	0.087762	0.065428	7517.669922
9551.915497	1.032660	0.063281	480.186859
9551.916416	1.474175	0.063281	1834.953613
9551.917325	1.468286	0.063281	3169.625488
9551.918218	1.433690	0.063281	4449.911133
9551.919168	1.397003	0.063281	5777.064453
9551.920094	0.992468	0.063281	6696.089844
9551.920981	0.119220	0.063281	6801.837891
9551.921922	0.087858	0.063281	6884.511719
9551.922833	0.087773	0.063281	6964.473145
9551.923736	0.087722	0.063281	7043.686035
9551.924624	0.087806	0.063281	7121.658203
9551.925572	0.087876	0.063281	7204.964844
9551.926474	0.087697	0.063281	7284.066895
9551.927379	0.087854	0.063281	7363.574707
9551.928288	0.087828	0.063281	7443.410645
9551.929217	0.087810	0.063281	7524.986328
9552.931271	0.998331	0.065686	436.270782
9552.932233	1.475343	0.065686	1855.550781
9552.933149	1.467638	0.065686	3199.907227
9552.934056	1.432284	0.065686	4498.988770
9552.935000	1.396227	0.065686	5817.026855
9552.935925	0.961359	0.065686	6706.283691
9552.936819	0.113500	0.065686	6807.752441
9552.937705	0.087579	0.065686	6885.347656
9552.938648	0.087832	0.065686	6968.173340
9552.939547	0.087828	0.065686	7047.130859
9552.940441	0.087788	0.065686	7125.613281
9552.941325	0.087755	0.065686	7203.188965
9552.942261	0.087788	0.065686	7285.358398
9552.943183	0.087821	0.065686	7366.329590
9552.944077	0.087832	0.065686	7444.851562
9552.945004	0.087737	0.065686	7526.183594
9553.987033	1.003077	0.062765	447.372528
9553.987926	1.471644	0.062765	1761.550903
9553.988892	1.468154	0.062765	3179.788086
9553.989799	1.432797	0.062765	4479.334473
9553.990706	1.397314	0.062765	5746.698730
9553.991660	0.976739	0.062765	6678.508301
9553.992563	0.114547	0.062765	6781.944336
9553.993461	0.087645	0.062765	6860.649902
9553.994353	0.087792	0.062765	6938.959961
9553.995299	0.087854	0.062765	7022.069824
9553.996198	0.087843	0.062765	7101.040527
9553.997092	0.087817	0.062765	7179.549316
9553.997978	0.087850	0.062765	7257.384766
9553.998926	0.087828	0.062765	7340.645996
9553.999832	0.087653	0.062765	7420.059082
9554.000731	0.087737	0.062765	7498.934570
9555.002829	1.001250	0.066781	440.550018
9555.003737	1.471923	0.066781	1777.055786
9555.004632	1.469535	0.066781	3092.289551
9555.005619	1.432471	0.066781	4506.138184
9555.006540	1.396113	0.066781	5791.958496
9555.007456	0.987554	0.066781	6696.557617
9555.008344	0.118213	0.066781	6801.530762
9555.009297	0.087737	0.066781	6885.144043
9555.010200	0.087762	0.066781	6964.393555
9555.011087	0.087773	0.066781	7042.248535
9555.012018	0.087946	0.066781	7124.125977
9555.012932	0.087773	0.066781	7204.351074
9555.013833	0.087817	0.066781	7283.474609
9555.014727	0.087784	0.066781	7361.954102
9555.015683	0.087854	0.066781	7445.942383
9555.016587	0.087711	0.066781	7525.233398
9556.060618	0.991677	0.061778	431.379608
9556.061566	1.472655	0.061778	1827.456543
9556.062478	1.468326	0.061778	3166.570312
9556.063386	1.433405	0.061778	4468.101562
9556.064285	1.397974	0.061778	5724.879883
9556.065247	0.992882	0.061778	6680.032227
9556.066154	0.116239	0.061778	6785.460937
9556.067049	0.087649	0.061778	6863.906738
9556.067970	0.087828	0.061778	6944.796875
9556.068878	0.087924	0.061778	7024.631348
9556.069791	0.087671	0.061778	7104.674805
9556.070680	0.087715	0.061778	7182.653320
9556.071617	0.087825	0.061778	7264.945312
9556.072523	0.087700	0.061778	7344.401855
9556.073425	0.087858	0.061778	7423.649414
9556.074313	0.087832	0.061778	7501.644043
9557.074378	1.010662	0.065770	444.691162
9557.075346	1.475914	0.065770	1873.376099
9557.076266	1.467330	0.065770	3223.320068
9557.077167	1.432434	0.065770	4513.943359
9557.078110	1.395828	0.065770	5830.208984
9557.079030	0.957583	0.065770	6711.185547
9557.079921	0.113317	0.065770	6812.150879
9557.080807	0.087620	0.065770	6889.781738
9557.081743	0.087777	0.065770	6971.940918
9557.082653	0.087836	0.065770	7051.871582
9557.083550	0.087795	0.065770	7130.624023
9557.084458	0.087799	0.065770	7210.345703
9557.085375	0.087715	0.065770	7290.780273
9557.086286	0.087733	0.065770	7370.705078
9557.087175	0.087817	0.065770	7448.774902
9557.088116	0.087810	0.065770	7531.404297
9558.132191	1.020883	0.061939	460.418060
9558.133099	1.472824	0.061939	1797.741821
9558.133996	1.469579	0.061939	3115.954102
9558.134942	1.434108	0.061939	4472.620117
9558.135853	1.397230	0.061939	5745.497070
9558.136769	1.029533	0.061939	6688.548828
9558.137657	0.126661	0.061939	6801.023926
9558.138604	0.087653	0.061939	6884.030762
9558.139503	0.087847	0.061939	6963.004883
9558.140408	0.087773	0.061939	7042.439941
9558.141296	0.087799	0.061939	7120.405273
9558.142253	0.087810	0.061939	7204.439453
9558.143154	0.087748	0.061939	7283.500000
9558.144047	0.087788	0.061939	7361.894531
9558.144973	0.087839	0.061939	7443.233887
9558.145876	0.087916	0.061939	7522.622070
9559.143881	0.992787	0.067051	433.847870
9559.144861	1.475350	0.067051	1879.691162
9559.145772	1.467235	0.067051	3216.342285
9559.146665	1.432606	0.067051	4495.659668
9559.147584	1.396520	0.067051	5779.061523
9559.148525	0.972125	0.067051	6693.831543
9559.149431	0.113665	0.067051	6796.811523
9559.150328	0.087587	0.067051	6875.376953
9559.151249	0.087799	0.067051	6956.239746
9559.152146	0.087861	0.067051	7035.051270
9559.153055	0.087704	0.067051	7114.773926
9559.153945	0.087810	0.067051	7192.924805
9559.154901	0.087905	0.067051	7276.962402
9559.155811	0.087715	0.067051	7356.782715
9559.156699	0.087854	0.067051	7434.796875
9559.157615	0.087832	0.067051	7515.250977
9560.205788	1.015426	0.062093	459.988007
9560.206688	1.472560	0.062093	1785.291870
9560.207630	1.468868	0.062093	3168.965820
9560.208537	1.433639	0.062093	4469.276367
9560.209447	1.397688	0.062093	5741.172363
9560.210349	1.046466	0.062093	6685.084961
9560.211282	0.121062	0.062093	6798.035645
9560.212181	0.087697	0.062093	6876.875000
9560.213081	0.087821	0.062093	6955.914062
9560.213967	0.087792	0.062093	7033.697754
9560.214934	0.087865	0.062093	7118.663086
9560.215848	0.087924	0.062093	7199.025391
9560.216747	0.087839	0.062093	7277.993164
9560.217671	0.087916	0.062093	7359.228027
9560.218566	0.087869	0.062093	7437.870605
9560.219468	0.087825	0.062093	7517.088379
9561.215460	1.026709	0.066790	468.179291
9561.216380	1.473874	0.066790	1824.143799
9561.217318	1.467382	0.066790	3200.547852
9561.218217	1.431852	0.066790	4487.782715
9561.219174	1.395341	0.066790	5823.123535
9561.220082	0.965947	0.066790	6700.203613
9561.220970	0.115272	0.066790	6802.565430
9561.221916	0.087726	0.066790	6885.554199
9561.222827	0.087953	0.066790	6965.679199
9561.223738	0.087850	0.066790	7045.710937
9561.224623	0.087792	0.066790	7123.406738
9561.225571	0.087755	0.066790	7206.598633
9561.226475	0.087686	0.066790	7285.866211
9561.227367	0.087865	0.066790	7364.241699
9561.228295	0.087858	0.066790	7445.773437
9561.229218	0.087737	0.066790	7526.754395
9562.280395	1.003315	0.059909	441.458801
9562.281372	1.475468	0.059909	1882.990723
9562.282287	1.467063	0.059909	3225.353271
9562.283184	1.432467	0.059909	4510.276367
9562.284122	1.395864	0.059909	5819.597168
9562.285045	0.958469	0.059909	6704.264160
9562.285938	0.113705	0.059909	6805.802734
9562.286834	0.087601	0.059909	6884.293457
9562.287777	0.087902	0.059909	6967.184570
9562.288681	0.087847	0.059909	7046.598145
9562.289584	0.087693	0.059909	7125.784668
9562.290471	0.087788	0.059909	7203.652832
9562.291408	0.087751	0.059909	7285.875977
9562.292322	0.087751	0.059909	7366.081055
9562.293210	0.087854	0.059909	7444.095215
9562.294142	0.087876	0.059909	7525.995605
9563.284959	1.013441	0.068792	453.008209
9563.285861	1.472340	0.068792	1781.058960
9563.286755	1.469857	0.068792	3095.111328
9563.287725	1.433057	0.068792	4485.176270
9563.288637	1.397087	0.068792	5759.319824
9563.289546	1.019736	0.068792	6686.260254
9563.290437	0.123717	0.068792	6796.492187
9563.291379	0.087770	0.068792	6879.171387
9563.292288	0.087740	0.068792	6958.927246
9563.293185	0.087803	0.068792	7037.686523
9563.294114	0.087806	0.068792	7119.258789
9563.295018	0.087865	0.068792	7198.688965
9563.295923	0.087799	0.068792	7278.146973
9563.296812	0.087828	0.068792	7356.226562
9563.297757	0.087891	0.068792	7439.283203
9563.298659	0.087762	0.068792	7518.444824
9564.351957	1.001821	0.061597	445.810455
9564.352856	1.471666	0.061597	1768.838379
9564.353750	1.470234	0.061597	3083.228027
9564.354700	1.434016	0.061597	4445.543457
9564.355621	1.397494	0.061597	5732.635254
9564.356537	1.039135	0.061597	6684.482422
9564.357422	0.127939	0.061597	6797.708984
9564.358372	0.087759	0.061597	6881.080078
9564.359269	0.087733	0.061597	6959.776855
9564.360156	0.087865	0.061597	7037.712891
9564.361083	0.087902	0.061597	7119.197754
9564.361994	0.087795	0.061597	7199.179199
9564.362894	0.087828	0.061597	7278.224609
9564.363785	0.087810	0.061597	7356.463379
9564.364733	0.087931	0.061597	7439.821777
9564.365649	0.087770	0.061597	7520.218750
9565.355487	1.015529	0.067116	462.065491
9565.356378	1.472270	0.067116	1773.858398
9565.357320	1.468341	0.067116	3157.035645
9565.358237	1.433053	0.067116	4471.145508
9565.359149	1.397355	0.067116	5745.533203
9565.360054	1.016770	0.067116	6665.709961
9565.361013	0.112753	0.067116	6773.839844
9565.361911	0.087686	0.067116	6852.581543
9565.362809	0.087909	0.067116	6931.523926
9565.363743	0.087913	0.067116	7013.634277
9565.364639	0.087861	0.067116	7092.357910
9565.365548	0.087744	0.067116	7172.117187
9565.366439	0.087891	0.067116	7250.427734
9565.367375	0.087924	0.067116	7332.724121
9565.368277	0.087891	0.067116	7412.001465
9565.369187	0.087762	0.067116	7491.865234
9566.424585	1.019868	0.060493	509.934113
9566.425502	1.475918	0.060493	1863.350830
9566.426438	1.466129	0.060493	3235.647705
9566.427329	1.431969	0.060493	4511.532227
9566.428288	1.393942	0.060493	5848.322266
9566.429198	0.908617	0.060493	6675.163574
9566.430119	0.105824	0.060493	6772.627441
9566.431006	0.087675	0.060493	6850.394531
9566.431957	0.087744	0.060493	6933.839355
9566.432857	0.087832	0.060493	7012.888184
9566.433752	0.087902	0.060493	7091.560059
9566.434680	0.087891	0.060493	7173.122559
9566.435592	0.087729	0.060493	7253.131836
9566.436514	0.087759	0.060493	7334.045410
9566.437400	0.087861	0.060493	7411.890625
9566.438351	0.087880	0.060493	7495.464355
9567.425992	0.990370	0.067374	429.820526
9567.426944	1.471619	0.067374	1830.801514
9567.427869	1.467524	0.067374	3188.261719
9567.428777	1.432647	0.067374	4489.104492
9567.429670	1.397728	0.067374	5737.275879
9567.430653	0.956913	0.067374	6677.921387
9567.431549	0.112584	0.067374	6778.796875
9567.432447	0.087645	0.067374	6857.502441
9567.433336	0.087817	0.067374	6935.572266
9567.434279	0.087861	0.067374	7018.425293
9567.435177	0.087909	0.067374	7097.367676
9567.436072	0.087773	0.067374	7175.924805
9567.437001	0.087836	0.067374	7257.523926
9567.437909	0.087817	0.067374	7337.262207
9567.438810	0.087850	0.067374	7416.415527
9567.439703	0.087814	0.067374	7494.833008
9568.497144	1.051263	0.061307	504.606384
9568.498054	1.474655	0.061307	1846.541992
9568.498959	1.468231	0.061307	3175.291260
9568.499852	1.433225	0.061307	4455.161133
9568.500801	1.396901	0.061307	5780.819824
9568.501724	0.992395	0.061307	6696.800293
9568.502624	0.117986	0.061307	6802.987305
9568.503566	0.087784	0.061307	6885.680176
9568.504471	0.087843	0.061307	6965.178223
9568.505373	0.087773	0.061307	7044.350098
9568.506263	0.087675	0.061307	7122.380371
9568.507207	0.087949	0.061307	7205.404297
9568.508107	0.087817	0.061307	7284.439941
9568.509005	0.087733	0.061307	7363.224121
9568.509892	0.087722	0.061307	7441.033691
9568.510836	0.087784	0.061307	7523.902344
9569.497574	1.028807	0.066491	471.193787
9569.498483	1.473311	0.066491	1810.433105
9569.499412	1.468041	0.066491	3174.242920
9569.500326	1.432903	0.066491	4483.916016
9569.501259	1.396307	0.066491	5786.670898
9569.502176	0.985737	0.066491	6690.591797
9569.503063	0.118740	0.066491	6795.914551
9569.504012	0.087795	0.066491	6879.232422
9569.504914	0.087733	0.066491	6958.367676
9569.505815	0.087814	0.066491	7037.487793
9569.506702	0.087770	0.066491	7115.339355
9569.507657	0.087887	0.066491	7199.271484
9569.508562	0.087667	0.066491	7278.610352
9569.509452	0.087806	0.066491	7356.757812
9569.510379	0.087751	0.066491	7438.103516
9569.511293	0.087803	0.066491	7518.354980
