time (s)	coil I (A)	last det (V)	int current (uC)
7520.134600	1.002264	0.118509	440.996338
7520.135561	1.475570	0.118509	1859.019165
7520.136481	1.467609	0.118509	3209.219238
7520.137385	1.433159	0.118509	4504.794922
7520.138341	0.869952	0.118509	5336.469238
7520.139242	0.101375	0.118509	5427.807617
7520.140140	0.087634	0.118509	5506.503418
7520.141027	0.087927	0.118509	5584.495117
7520.141972	0.087905	0.118509	5667.565430
7520.142874	0.087854	0.118509	5746.809570
7520.143772	0.087876	0.118509	5825.722168
7520.144658	0.087854	0.118509	5903.561035
7520.145599	0.087971	0.118509	5986.341797
7520.146511	0.087795	0.118509	6066.411133
7520.147409	0.087784	0.118509	6145.241699
7521.207750	0.993915	0.111915	433.346863
7521.208697	1.471897	0.111915	1827.233154
7521.209619	1.468825	0.111915	3181.489258
7521.210518	1.433752	0.111915	4470.432617
7521.211421	0.965940	0.111915	5342.676270
7521.212374	0.105707	0.111915	5443.415039
7521.213274	0.087748	0.111915	5522.388184
7521.214178	0.087924	0.111915	5601.871094
7521.215066	0.087880	0.111915	5679.908203
7521.216022	0.087957	0.111915	5763.994629
7521.216931	0.087744	0.111915	5843.753906
7521.217819	0.087946	0.111915	5921.849609
7521.218758	0.087902	0.111915	6004.389160
7521.219661	0.087858	0.111915	6083.724609
7521.220553	0.087806	0.111915	6162.047852
7522.207177	0.988521	0.122739	427.040863
7522.208118	1.471630	0.122739	1811.844482
7522.209044	1.468605	0.122739	3171.772461
7522.209956	1.433771	0.122739	4479.371582
7522.210855	0.957689	0.122739	5340.333984
7522.211809	0.104421	0.122739	5439.952148
7522.212710	0.087773	0.122739	5519.036133
7522.213607	0.087861	0.122739	5597.847656
7522.214491	0.087935	0.122739	5675.582031
7522.215423	0.088030	0.122739	5757.625977
7522.216336	0.087781	0.122739	5837.770020
7522.217238	0.087858	0.122739	5917.017578
7522.218170	0.087927	0.122739	5998.965820
7522.219081	0.087883	0.122739	6079.027344
7522.219983	0.087861	0.122739	6158.278320
7523.278796	1.000697	0.110940	441.307373
7523.279711	1.472684	0.110940	1788.813599
7523.280617	1.469564	0.110940	3120.238770
7523.281570	1.433789	0.110940	4486.639648
7523.282490	0.922782	0.110940	5335.599121
7523.283389	0.107234	0.110940	5432.002441
7523.284274	0.087664	0.110940	5509.584473
7523.285234	0.087836	0.110940	5593.906738
7523.286125	0.087839	0.110940	5672.171387
7523.287022	0.087777	0.110940	5750.907227
7523.287943	0.087799	0.110940	5831.770020
7523.288848	0.088026	0.110940	5911.433594
7523.289756	0.087821	0.110940	5991.175293
7523.290650	0.087891	0.110940	6069.749512
7523.291590	0.087887	0.110940	6152.363281
7524.279251	1.000463	0.123988	440.203552
7524.280153	1.472054	0.123988	1767.996582
7524.281051	1.470674	0.123988	3088.661621
7524.282012	1.433833	0.123988	4466.575195
7524.282952	0.917062	0.123988	5328.613281
7524.283855	0.105886	0.123988	5424.228516
7524.284742	0.087847	0.123988	5502.148437
7524.285687	0.087872	0.123988	5585.187988
7524.286589	0.087777	0.123988	5664.362793
7524.287479	0.087828	0.123988	5742.530273
7524.288418	0.087887	0.123988	5825.056152
7524.289319	0.087865	0.123988	5904.222656
7524.290222	0.087828	0.123988	5983.531738
7524.291109	0.087891	0.123988	6061.490723
7524.292046	0.087942	0.123988	6143.892090
7525.347278	1.003986	0.109393	444.765625
7525.348257	1.476621	0.109393	1890.377563
7525.349178	1.467235	0.109393	3241.701172
7525.350081	1.432229	0.109393	4535.003906
7525.351006	0.880188	0.109393	5349.177734
7525.351904	0.102521	0.109393	5441.241211
7525.352811	0.087799	0.109393	5520.875000
7525.353707	0.087850	0.109393	5599.588867
7525.354643	0.087913	0.109393	5681.875000
7525.355552	0.087854	0.109393	5761.734375
7525.356455	0.087931	0.109393	5841.135742
7525.357344	0.087795	0.109393	5919.186035
7525.358293	0.087971	0.109393	6002.670898
7525.359203	0.087737	0.109393	6082.511230
7525.360096	0.087913	0.109393	6161.017090
7526.350794	0.999152	0.119262	438.627533
7526.351692	1.471542	0.119262	1760.071899
7526.352678	1.467792	0.119262	3207.314453
7526.353591	1.432635	0.119262	4515.310547
7526.354491	0.917878	0.119262	5341.401367
7526.355443	0.104656	0.119262	5441.033691
7526.356350	0.087686	0.119262	5520.564453
7526.357275	0.087836	0.119262	5601.812500
7526.358164	0.087931	0.119262	5679.982910
7526.359109	0.087880	0.119262	5763.029297
7526.360010	0.087806	0.119262	5842.143066
7526.360902	0.087821	0.119262	5920.479492
7526.361826	0.087839	0.119262	6001.643066
7526.362748	0.087927	0.119262	6082.711914
7526.363656	0.087861	0.119262	6162.490234
7527.421401	1.010881	0.109615	449.842194
7527.422320	1.473245	0.109615	1803.754028
7527.423228	1.469319	0.109615	3137.895508
7527.424166	1.434009	0.109615	4482.995605
7527.425103	0.906508	0.109615	5332.393066
7527.426009	0.105135	0.109615	5427.645996
7527.426899	0.087671	0.109615	5505.672852
7527.427835	0.087902	0.109615	5587.948730
7527.428741	0.087913	0.109615	5667.597656
7527.429633	0.087759	0.109615	5745.878418
7527.430521	0.087781	0.109615	5823.827637
7527.431455	0.087865	0.109615	5905.893555
7527.432357	0.087828	0.109615	5985.114746
7527.433254	0.087762	0.109615	6063.837891
7527.434174	0.087817	0.109615	6144.629883
7528.422363	1.017019	0.122304	463.760681
7528.423269	1.473333	0.122304	1798.599854
7528.424209	1.468817	0.122304	3179.288086
7528.425118	1.433760	0.122304	4482.575684
7528.426028	0.944048	0.122304	5341.659180
7528.426912	0.111193	0.122304	5439.953613
7528.427861	0.087861	0.122304	5523.333984
7528.428759	0.087715	0.122304	5602.102051
7528.429660	0.087920	0.122304	5681.317871
7528.430545	0.087828	0.122304	5759.045898
7528.431494	0.087997	0.122304	5842.554687
7528.432401	0.087938	0.122304	5922.314453
7528.433297	0.087781	0.122304	6000.965820
7528.434222	0.087898	0.122304	6082.271484
7528.435122	0.087916	0.122304	6161.395996
7529.492951	1.010288	0.111810	450.588501
7529.493851	1.472157	0.111810	1775.529785
7529.494770	1.469344	0.111810	3125.857422
7529.495715	1.433514	0.111810	4480.528320
7529.496621	0.947289	0.111810	5338.771973
7529.497508	0.111207	0.111810	5437.412598
7529.498447	0.087762	0.111810	5519.821289
7529.499362	0.087869	0.111810	5600.221191
7529.500284	0.087891	0.111810	5681.256348
7529.501183	0.087777	0.111810	5760.167969
7529.502148	0.087814	0.111810	5844.908203
7529.503049	0.087719	0.111810	5923.942383
7529.503939	0.087792	0.111810	6002.077148
7529.504868	0.087894	0.111810	6083.730957
7529.505778	0.087675	0.111810	6163.514648
7530.494433	1.022505	0.126457	463.194733
7530.495355	1.473743	0.126457	1821.985352
7530.496255	1.469121	0.126457	3144.194336
7530.497184	1.434093	0.126457	4476.466797
7530.498126	0.906335	0.126457	5330.234863
7530.499035	0.104923	0.126457	5425.609863
7530.499930	0.087737	0.126457	5504.134277
7530.500874	0.087887	0.126457	5587.099609
7530.501778	0.087909	0.126457	5666.569336
7530.502671	0.087920	0.126457	5745.082031
7530.503564	0.087814	0.126457	5823.499512
7530.504495	0.087968	0.126457	5905.397461
7530.505414	0.087924	0.126457	5986.199219
7530.506314	0.087836	0.126457	6065.251465
7530.507239	0.087960	0.126457	6146.614746
7531.563471	0.998910	0.109772	439.520355
7531.564431	1.475013	0.109772	1855.533203
7531.565349	1.468081	0.109772	3203.231445
7531.566243	1.433302	0.109772	4484.603516
7531.567204	0.882426	0.109772	5332.614258
7531.568107	0.102444	0.109772	5425.121094
7531.569011	0.087836	0.109772	5504.524414
7531.569906	0.087865	0.109772	5583.163574
7531.570842	0.087964	0.109772	5665.497559
7531.571755	0.087832	0.109772	5745.687988
7531.572652	0.087935	0.109772	5824.565430
7531.573539	0.087854	0.109772	5902.491699
7531.574487	0.087880	0.109772	5985.801758
7531.575395	0.087766	0.109772	6065.493164
7531.576283	0.087861	0.109772	6143.514160
7532.564978	1.044902	0.122574	498.418396
7532.565897	1.475442	0.122574	1854.349609
7532.566832	1.467473	0.122574	3226.437012
7532.567727	1.432137	0.122574	4508.200195
7532.568708	0.824813	0.122574	5317.341797
7532.569613	0.099397	0.122574	5407.295898
7532.570501	0.087726	0.122574	5485.196289
7532.571428	0.087795	0.122574	5566.582520
7532.572331	0.087784	0.122574	5645.852051
7532.573247	0.087817	0.122574	5726.292969
7532.574140	0.087806	0.122574	5804.704102
7532.575088	0.087847	0.122574	5887.982910
7532.575993	0.087850	0.122574	5967.487305
7532.576883	0.087865	0.122574	6045.687012
7532.577797	0.087817	0.122574	6125.952148
7533.636557	1.005564	0.109333	446.470398
7533.637532	1.476617	0.109333	1886.172363
7533.638445	1.467327	0.109333	3225.841553
7533.639348	1.432639	0.109333	4519.514648
7533.640296	0.871168	0.109333	5345.381836
7533.641196	0.102198	0.109333	5437.360352
7533.642102	0.087784	0.109333	5516.893066
7533.642988	0.087726	0.109333	5594.618164
7533.643916	0.087927	0.109333	5676.214844
7533.644816	0.087938	0.109333	5755.359375
7533.645718	0.087821	0.109333	5834.573730
7533.646606	0.087825	0.109333	5912.562012
7533.647557	0.087975	0.109333	5996.226074
7533.648458	0.087883	0.109333	6075.408691
7533.649350	0.087828	0.109333	6153.751465
7534.637534	1.011215	0.122376	452.012939
7534.638459	1.473453	0.122376	1814.957397
7534.639357	1.469502	0.122376	3134.570068
7534.640292	1.434144	0.122376	4475.495117
7534.641208	0.935438	0.122376	5332.356445
7534.642112	0.108347	0.122376	5430.302246
7534.643002	0.087795	0.122376	5508.439941
7534.643938	0.087872	0.122376	5590.688477
7534.644840	0.087810	0.122376	5669.893066
7534.645747	0.087927	0.122376	5749.643066
7534.646634	0.087843	0.122376	5827.560059
7534.647585	0.088008	0.122376	5911.255371
7534.648490	0.087850	0.122376	5990.759766
7534.649379	0.087799	0.122376	6068.812988
7534.650320	0.087883	0.122376	6151.511230
7535.707600	0.999829	0.112676	440.924652
7535.708520	1.472867	0.112676	1795.962646
7535.709427	1.469399	0.112676	3128.708008
7535.710365	1.434093	0.112676	4473.887207
7535.711288	0.934285	0.112676	5336.231934
7535.712181	0.108918	0.112676	5433.496094
7535.713069	0.087719	0.112676	5511.390137
7535.714012	0.087935	0.112676	5594.312500
7535.714921	0.087861	0.112676	5674.178223
7535.715811	0.087854	0.112676	5752.368164
7535.716746	0.087898	0.112676	5834.552734
7535.717649	0.087869	0.112676	5913.897949
7535.718544	0.087770	0.112676	5992.451660
7535.719435	0.087832	0.112676	6070.709961
7535.720378	0.087854	0.112676	6153.556152
7536.709063	0.994222	0.126316	432.486755
7536.710016	1.471794	0.126316	1835.106689
7536.710930	1.468246	0.126316	3177.083496
7536.711835	1.433507	0.126316	4474.407227
7536.712737	0.958363	0.126316	5338.850586
7536.713685	0.104905	0.126316	5438.300293
7536.714588	0.087693	0.126316	5517.486816
7536.715495	0.087872	0.126316	5597.187012
7536.716378	0.087825	0.126316	5674.736328
7536.717321	0.087887	0.126316	5757.613770
7536.718225	0.087825	0.126316	5837.007324
7536.719113	0.087894	0.126316	5915.057617
7536.720052	0.087891	0.126316	5997.586914
7536.720956	0.087854	0.126316	6077.006836
7536.721854	0.087821	0.126316	6155.870117
7537.778145	1.010618	0.110211	450.735443
7537.779049	1.472201	0.110211	1781.605103
7537.779944	1.470176	0.110211	3097.412354
7537.780908	1.434144	0.110211	4479.927734
7537.781824	0.936035	0.110211	5337.335937
7537.782742	0.106351	0.110211	5434.966309
7537.783635	0.087770	0.110211	5513.344727
7537.784579	0.087891	0.110211	5596.313477
7537.785487	0.087814	0.110211	5676.048340
7537.786376	0.087821	0.110211	5754.121094
7537.787289	0.087979	0.110211	5834.445312
7537.788222	0.087869	0.110211	5916.426758
7537.789123	0.087960	0.110211	5995.678711
7537.790014	0.087825	0.110211	6073.930664
7537.790964	0.087814	0.110211	6157.353516
7538.779601	1.019220	0.124157	452.533630
7538.780577	1.476541	0.124157	1893.637207
7538.781491	1.466938	0.124157	3234.418945
7538.782396	1.432236	0.124157	4530.592773
7538.783341	0.865554	0.124157	5348.541504
7538.784246	0.102056	0.124157	5440.901855
7538.785144	0.087733	0.124157	5519.686035
7538.786028	0.087909	0.124157	5597.397461
7538.786975	0.087964	0.124157	5680.699219
7538.787874	0.087784	0.124157	5759.617187
7538.788768	0.087850	0.124157	5838.155273
7538.789689	0.087858	0.124157	5919.072266
7538.790606	0.087982	0.124157	5999.751953
7538.791513	0.087821	0.124157	6079.405762
7538.792406	0.087986	0.124157	6157.977051
7539.850779	1.074954	0.109172	558.975891
7539.851683	1.476460	0.109172	1893.695801
7539.852617	1.466272	0.109172	3263.193848
7539.853511	1.431324	0.109172	4542.797852
7539.854473	0.816874	0.109172	5328.630371
7539.855377	0.098584	0.109172	5417.750488
7539.856268	0.087733	0.109172	5495.920898
7539.857189	0.087938	0.109172	5576.912109
7539.858111	0.087843	0.109172	5657.903320
7539.859010	0.087847	0.109172	5736.877441
7539.859896	0.087697	0.109172	5814.576660
7539.860838	0.087847	0.109172	5897.328125
7539.861736	0.087777	0.109172	5976.151855
7539.862655	0.087872	0.109172	6056.906738
7539.863541	0.087876	0.109172	6134.764648
7540.852170	0.995186	0.122159	433.900940
7540.853138	1.473622	0.122159	1860.366699
7540.854053	1.467609	0.122159	3203.228516
7540.854961	1.432628	0.122159	4504.054687
7540.855862	0.919918	0.122159	5332.900879
7540.856831	0.101312	0.122159	5431.072266
7540.857730	0.087711	0.122159	5509.924805
7540.858625	0.087839	0.122159	5588.541016
7540.859560	0.087817	0.122159	5670.650391
7540.860463	0.087975	0.122159	5750.091797
7540.861370	0.087920	0.122159	5829.834961
7540.862264	0.087806	0.122159	5908.333984
7540.863203	0.087887	0.122159	5990.859863
7540.864099	0.087905	0.122159	6069.623047
7540.864996	0.087920	0.122159	6148.487305
7541.922249	0.994369	0.112495	436.527954
7541.923217	1.475830	0.112495	1865.131470
7541.924134	1.467579	0.112495	3210.901855
7541.925043	1.432562	0.112495	4513.101074
7541.925952	0.891650	0.112495	5323.611328
7541.926901	0.100613	0.112495	5419.092773
7541.927808	0.087708	0.112495	5498.643555
7541.928709	0.087876	0.112495	5577.819824
7541.929658	0.087949	0.112495	5661.283691
7541.930564	0.087993	0.112495	5741.005371
7541.931459	0.087946	0.112495	5819.716797
7541.932343	0.087861	0.112495	5897.386230
7541.933276	0.087971	0.112495	5979.463379
7541.934185	0.087924	0.112495	6059.385742
7541.935078	0.087828	0.112495	6137.816406
7542.923746	1.016979	0.125708	461.708344
7542.924647	1.472640	0.125708	1788.557373
7542.925541	1.469850	0.125708	3102.603271
7542.926491	1.433723	0.125708	4464.640625
7542.927420	0.927828	0.125708	5326.593262
7542.928321	0.106945	0.125708	5422.950195
7542.929242	0.087781	0.125708	5503.796387
7542.930166	0.087938	0.125708	5585.051270
7542.931068	0.087806	0.125708	5664.252441
7542.931965	0.087799	0.125708	5743.008301
7542.932904	0.087946	0.125708	5825.589355
7542.933810	0.087814	0.125708	5905.148437
7542.934705	0.087737	0.125708	5983.672852
7542.935592	0.087883	0.125708	6061.625488
7542.936535	0.087924	0.125708	6144.537598
7543.993313	1.014957	0.110416	458.760712
7543.994235	1.473541	0.110416	1817.365723
7543.995129	1.469454	0.110416	3131.057861
7543.996077	1.433426	0.110416	4489.946289
7543.997001	0.912378	0.110416	5332.983398
7543.997898	0.106179	0.110416	5428.226074
7543.998790	0.087843	0.110416	5506.582031
7543.999733	0.088015	0.110416	5589.580078
7544.000642	0.088004	0.110416	5669.575684
7544.001539	0.087927	0.110416	5748.446289
7544.002451	0.087938	0.110416	5828.645996
7544.003386	0.087993	0.110416	5910.919434
7544.004294	0.087880	0.110416	5990.714355
7544.005185	0.087847	0.110416	6068.985840
7544.006118	0.087979	0.110416	6151.069824
7544.994259	1.005893	0.125160	445.610809
7544.995162	1.472179	0.125160	1774.988403
7544.996074	1.469293	0.125160	3114.983887
7544.997017	1.433800	0.125160	4467.057129
7544.997935	0.943817	0.125160	5333.481445
7544.998823	0.110284	0.125160	5431.414062
7544.999759	0.087891	0.125160	5513.679687
7545.000667	0.087704	0.125160	5593.314941
7545.001569	0.087865	0.125160	5672.569336
7545.002456	0.087762	0.125160	5750.414551
7545.003389	0.087924	0.125160	5832.447266
7545.004283	0.087682	0.125160	5910.834961
7545.005208	0.087777	0.125160	5992.028809
7545.006102	0.087916	0.125160	6070.625977
7545.007048	0.087916	0.125160	6153.794922
7546.065920	1.051348	0.111032	516.211731
7546.066842	1.476090	0.111032	1877.166748
7546.067752	1.467382	0.111032	3212.483887
7546.068647	1.432632	0.111032	4494.689453
7546.069622	0.849393	0.111032	5322.847656
7546.070530	0.100591	0.111032	5414.184082
7546.071426	0.087814	0.111032	5492.865234
7546.072353	0.087894	0.111032	5574.343262
7546.073258	0.087828	0.111032	5653.828125
7546.074170	0.087817	0.111032	5733.917480
7546.075062	0.087821	0.111032	5812.253906
7546.075993	0.087880	0.111032	5894.069824
7546.076900	0.087920	0.111032	5973.812988
7546.077798	0.087817	0.111032	6052.672852
7546.078689	0.087891	0.111032	6130.983398
7547.066831	1.001096	0.123714	441.483459
7547.067729	1.471644	0.123714	1763.020020
7547.068623	1.470158	0.123714	3077.340820
7547.069582	1.434357	0.123714	4452.888672
7547.070505	0.954020	0.123714	5333.448730
7547.071393	0.111903	0.123714	5432.818848
7547.072341	0.087810	0.123714	5516.062988
7547.073243	0.087905	0.123714	5595.353516
7547.074138	0.087876	0.123714	5674.002441
7547.075028	0.087854	0.123714	5752.192383
7547.075963	0.088000	0.123714	5834.472656
7547.076868	0.087887	0.123714	5914.010254
7547.077771	0.087828	0.123714	5993.319336
7547.078653	0.087916	0.123714	6070.861328
7547.079604	0.087883	0.123714	6154.438477
7548.136919	1.008384	0.113671	452.764313
7548.137819	1.472270	0.113671	1777.807739
7548.138758	1.468868	0.113671	3157.075195
7548.139682	1.433273	0.113671	4481.418945
7548.140607	0.915015	0.113671	5327.807617
7548.141505	0.106641	0.113671	5423.570801
7548.142439	0.087777	0.113671	5505.554687
7548.143352	0.087854	0.113671	5585.765625
7548.144257	0.087806	0.113671	5665.230469
7548.145146	0.087850	0.113671	5743.329590
7548.146091	0.087997	0.113671	5826.486816
7548.146997	0.087817	0.113671	5906.049316
7548.147890	0.087825	0.113671	5984.476562
7548.148837	0.087920	0.113671	6067.736816
7548.149735	0.088033	0.113671	6146.791016
7549.138383	1.005710	0.126163	444.524048
7549.139361	1.476398	0.126163	1888.441040
7549.140271	1.467352	0.126163	3223.731445
7549.141168	1.432507	0.126163	4508.690430
7549.142133	0.861453	0.126163	5339.992187
7549.143031	0.101265	0.126163	5430.927734
7549.143925	0.087708	0.126163	5509.338379
7549.144819	0.087920	0.126163	5587.938965
7549.145759	0.087905	0.126163	5670.569824
7549.146665	0.087902	0.126163	5750.208496
7549.147567	0.087814	0.126163	5829.416504
7549.148457	0.087854	0.126163	5907.606445
7549.149393	0.087924	0.126163	5989.902832
7549.150303	0.087836	0.126163	6069.833496
7549.151192	0.087762	0.126163	6147.854492
7550.207954	1.008933	0.111278	450.993134
7550.208853	1.471784	0.111278	1774.126587
7550.209841	1.467425	0.111278	3223.942871
7550.210752	1.431929	0.111278	4528.429687
7550.211653	0.905416	0.111278	5344.209961
7550.212605	0.104308	0.111278	5443.511230
7550.213509	0.087686	0.111278	5522.778809
7550.214410	0.087927	0.111278	5602.001465
7550.215298	0.087920	0.111278	5680.074219
7550.216257	0.087920	0.111278	5764.389648
7550.217159	0.087792	0.111278	5843.577637
7550.218053	0.087814	0.111278	5922.083008
7550.218968	0.087847	0.111278	6002.462891
7550.219888	0.087814	0.111278	6083.251465
7550.220784	0.087825	0.111278	6161.942383
7551.208962	1.050282	0.125095	508.336487
7551.209873	1.474951	0.125095	1852.017090
7551.210782	1.468048	0.125095	3186.472656
7551.211680	1.432829	0.125095	4473.153320
7551.212639	0.883857	0.125095	5320.772461
7551.213549	0.102817	0.125095	5414.336426
7551.214446	0.087751	0.125095	5493.049316
7551.215375	0.087865	0.125095	5574.675781
7551.216285	0.087861	0.125095	5654.629395
7551.217191	0.087909	0.125095	5734.274902
7551.218078	0.087777	0.125095	5812.133301
7551.219030	0.087905	0.125095	5895.819336
7551.219932	0.087971	0.125095	5975.169434
7551.220822	0.087795	0.125095	6053.307129
7551.221739	0.087887	0.125095	6133.899414
7552.280543	1.009790	0.111431	456.425110
7552.281448	1.472831	0.111431	1789.336914
7552.282341	1.469187	0.111431	3101.320801
7552.283291	1.433866	0.111431	4463.493164
7552.284208	0.942334	0.111431	5327.613281
7552.285094	0.110299	0.111431	5425.338379
7552.286029	0.087759	0.111431	5507.393066
7552.286937	0.087880	0.111431	5587.187988
7552.287853	0.087843	0.111431	5667.652344
7552.288741	0.087810	0.111431	5745.627441
7552.289702	0.087942	0.111431	5830.139648
7552.290605	0.087909	0.111431	5909.521484
7552.291525	0.087865	0.111431	5990.357422
7552.292411	0.087957	0.111431	6068.287109
7552.293350	0.087898	0.111431	6150.823242
7553.280969	0.993508	0.124741	430.189117
7553.281916	1.473142	0.124741	1825.254761
7553.282829	1.468557	0.124741	3166.047363
7553.283735	1.433745	0.124741	4465.020508
7553.284633	0.953716	0.124741	5321.457031
7553.285592	0.104894	0.124741	5422.050293
7553.286492	0.087773	0.124741	5501.046387
7553.287387	0.087792	0.124741	5579.620117
7553.288316	0.087854	0.124741	5661.236328
7553.289217	0.087935	0.124741	5740.465332
7553.290122	0.087784	0.124741	5819.910156
7553.291018	0.087858	0.124741	5898.630859
7553.291963	0.087920	0.124741	5981.715332
7553.292863	0.087949	0.124741	6060.869629
7553.293761	0.087773	0.124741	6139.689941
7554.352093	1.013529	0.112737	452.033966
7554.353012	1.473080	0.112737	1805.794312
7554.353918	1.468993	0.112737	3136.701660
7554.354863	1.433470	0.112737	4491.331055
7554.355792	0.907932	0.112737	5334.799805
7554.356689	0.105667	0.112737	5429.582520
7554.357578	0.087744	0.112737	5507.586914
7554.358531	0.087880	0.112737	5591.336426
7554.359428	0.087898	0.112737	5670.180664
7554.360330	0.087905	0.112737	5749.471191
7554.361216	0.087927	0.112737	5827.374512
7554.362163	0.087971	0.112737	5910.683105
7554.363076	0.087799	0.112737	5990.843750
7554.363970	0.087821	0.112737	6069.355957
7554.364897	0.087839	0.112737	6150.783203
7555.352546	1.016627	0.126977	453.415741
7555.353448	1.472362	0.126977	1781.486328
7555.354341	1.469813	0.126977	3094.029541
7555.355301	1.433632	0.126977	4470.315918
7555.356218	0.938079	0.126977	5330.534180
7555.357117	0.108406	0.126977	5427.990723
7555.358042	0.087850	0.126977	5509.252441
7555.358959	0.087979	0.126977	5589.928711
7555.359865	0.087949	0.126977	5669.610840
7555.360764	0.087898	0.126977	5748.630859
7555.361706	0.087913	0.126977	5831.444336
7555.362609	0.088004	0.126977	5910.912109
7555.363510	0.087869	0.126977	5990.081543
7555.364399	0.087810	0.126977	6068.144531
7555.365338	0.087993	0.126977	6150.770020
7556.423126	1.011683	0.112338	456.269196
7556.424022	1.472340	0.112338	1775.485962
7556.424980	1.468389	0.112338	3182.202148
7556.425891	1.433079	0.112338	4487.736816
7556.426800	0.935742	0.112338	5338.326660
7556.427691	0.109501	0.112338	5435.891602
7556.428644	0.087814	0.112338	5519.578125
7556.429551	0.087836	0.112338	5599.245117
7556.430444	0.087931	0.112338	5677.767578
7556.431377	0.087931	0.112338	5759.807129
7556.432279	0.088026	0.112338	5839.206543
7556.433172	0.087817	0.112338	5917.627441
7556.434057	0.087872	0.112338	5995.394531
7556.435001	0.087935	0.112338	6078.404785
7556.435899	0.087968	0.112338	6157.399414
7557.423575	1.008091	0.125571	449.608521
7557.424470	1.471469	0.125571	1766.572876
7557.425441	1.467854	0.125571	3191.859131
7557.426358	1.432661	0.125571	4505.609375
7557.427270	0.916406	0.125571	5341.372070
7557.428163	0.107172	0.125571	5437.076172
7557.429100	0.087847	0.125571	5519.388672
7557.430006	0.087843	0.125571	5598.974609
7557.430894	0.087821	0.125571	5676.959473
7557.431825	0.087905	0.125571	5758.799316
7557.432743	0.087883	0.125571	5839.476074
7557.433650	0.087894	0.125571	5919.196289
7557.434543	0.087902	0.125571	5997.692383
7557.435477	0.087942	0.125571	6079.830078
7557.436386	0.087942	0.125571	6159.769043
7558.495190	1.006333	0.112624	442.786530
7558.496120	1.473204	0.112624	1812.866577
7558.497021	1.469238	0.112624	3136.650391
7558.497978	1.432822	0.112624	4507.861328
7558.498899	0.905416	0.112624	5341.749512
7558.499793	0.105729	0.112624	5436.270996
7558.500687	0.087744	0.112624	5514.714355
7558.501616	0.088037	0.112624	5596.500977
7558.502527	0.087799	0.112624	5676.485840
7558.503424	0.087843	0.112624	5755.281250
7558.504338	0.087880	0.112624	5835.603027
7558.505259	0.087861	0.112624	5916.523437
7558.506166	0.087905	0.112624	5996.253418
7558.507060	0.087843	0.112624	6074.785156
7558.507990	0.087975	0.112624	6156.601562
7559.495686	1.016173	0.124451	505.037994
7559.496604	1.475900	0.124451	1859.913940
7559.497536	1.466601	0.124451	3226.786621
7559.498430	1.432178	0.124451	4507.153320
7559.499405	0.815361	0.124451	5302.130859
7559.500307	0.099108	0.124451	5391.525879
7559.501225	0.087810	0.124451	5472.135742
7559.502111	0.087843	0.124451	5549.964844
7559.503048	0.087810	0.124451	5632.242676
7559.503971	0.087927	0.124451	5713.399414
7559.504866	0.087949	0.124451	5792.113770
7559.505796	0.087894	0.124451	5873.855469
7559.506711	0.087773	0.124451	5954.167969
7559.507626	0.087975	0.124451	6034.665039
7559.508513	0.087898	0.124451	6112.630371
7560.567245	0.997108	0.113591	435.736237
7560.568207	1.475266	0.113591	1854.942139
7560.569127	1.467598	0.113591	3205.132080
7560.570030	1.432954	0.113591	4499.089844
7560.570985	0.879877	0.113591	5339.372070
7560.571891	0.102568	0.113591	5432.298828
7560.572786	0.087766	0.113591	5510.849609
7560.573671	0.087865	0.113591	5588.610352
7560.574620	0.087931	0.113591	5672.056641
7560.575514	0.087968	0.113591	5750.699707
7560.576418	0.087887	0.113591	5830.149414
7560.577308	0.087883	0.113591	5908.365723
7560.578264	0.087924	0.113591	5992.420898
7560.579166	0.087836	0.113591	6071.648926
7560.580063	0.087821	0.113591	6150.424316
7561.567736	1.052373	0.126445	507.243805
7561.568667	1.475922	0.126445	1881.326782
7561.569573	1.467506	0.126445	3210.887207
7561.570468	1.432753	0.126445	4493.201172
7561.571437	0.861031	0.126445	5327.540527
7561.572337	0.101741	0.126445	5419.106934
7561.573236	0.087697	0.126445	5497.946289
7561.574165	0.088044	0.126445	5579.739746
7561.575068	0.087938	0.126445	5659.147949
7561.575975	0.087792	0.126445	5738.774902
7561.576867	0.087887	0.126445	5817.169922
7561.577796	0.088059	0.126445	5898.976562
7561.578707	0.087843	0.126445	5979.001465
7561.579605	0.087858	0.126445	6057.897461
7561.580495	0.087803	0.126445	6136.041992
7562.637771	0.999316	0.112845	438.699890
7562.638738	1.475566	0.112845	1865.572510
7562.639646	1.467872	0.112845	3198.400391
7562.640540	1.433547	0.112845	4479.991699
7562.641469	0.909756	0.112845	5325.154785
7562.642394	0.103436	0.112845	5420.833496
7562.643294	0.087748	0.112845	5499.806641
7562.644185	0.087913	0.112845	5578.136719
7562.645114	0.087913	0.112845	5659.807617
7562.646020	0.087927	0.112845	5739.469727
7562.646934	0.087865	0.112845	5819.778320
7562.647819	0.087902	0.112845	5897.571289
7562.648771	0.087968	0.112845	5981.316406
7562.649677	0.087766	0.112845	6060.832520
7562.650567	0.087920	0.112845	6139.081055
7563.638226	1.006827	0.125506	441.997223
7563.639129	1.471772	0.125506	1771.007690
7563.640022	1.470267	0.125506	3083.956543
7563.640986	1.433921	0.125506	4466.256348
7563.641902	0.947607	0.125506	5334.264648
7563.642798	0.110222	0.125506	5433.023926
7563.643690	0.087828	0.125506	5511.366699
7563.644627	0.087960	0.125506	5593.785645
7563.645529	0.087825	0.125506	5673.003418
7563.646426	0.087814	0.125506	5751.772461
7563.647357	0.087869	0.125506	5833.578125
7563.648264	0.087990	0.125506	5913.384766
7563.649165	0.087821	0.125506	5992.511719
7563.650055	0.087810	0.125506	6070.662598
7563.651016	0.088022	0.125506	6155.251953
7564.709831	0.993798	0.112592	431.308136
7564.710788	1.473970	0.112592	1841.897217
7564.711710	1.467880	0.112592	3195.282227
7564.712623	1.432665	0.112592	4503.305176
7564.713528	0.915450	0.112592	5331.787598
7564.714472	0.102854	0.112592	5428.881836
7564.715372	0.087832	0.112592	5507.930664
7564.716265	0.087891	0.112592	5586.416992
7564.717194	0.088008	0.112592	5668.176270
7564.718097	0.087986	0.112592	5747.627441
7564.718998	0.087788	0.112592	5826.724609
7564.719886	0.087843	0.112592	5904.729004
7564.720823	0.087876	0.112592	5987.068848
7564.721733	0.087894	0.112592	6067.052734
7564.722638	0.087751	0.112592	6146.467773
7565.710279	0.992157	0.125821	430.596161
7565.711223	1.471205	0.125821	1819.413574
7565.712154	1.467938	0.125821	3186.063965
7565.713063	1.432863	0.125821	4488.536133
7565.713964	0.941675	0.125821	5336.985352
7565.714908	0.105839	0.125821	5436.896973
7565.715813	0.087678	0.125821	5516.245605
7565.716729	0.087927	0.125821	5596.787109
7565.717615	0.087821	0.125821	5674.596680
7565.718565	0.087898	0.125821	5758.099609
7565.719456	0.087799	0.125821	5836.328613
7565.720342	0.087887	0.125821	5914.196289
7565.721270	0.087814	0.125821	5995.687500
7565.722194	0.087880	0.125821	6076.888184
7565.723102	0.087839	0.125821	6156.646484
7566.781403	1.017704	0.113663	455.931335
7566.782306	1.472336	0.113663	1785.451172
7566.783198	1.469843	0.113663	3096.550781
7566.784158	1.433767	0.113663	4472.967285
7566.785083	0.932542	0.113663	5335.568359
7566.785974	0.108047	0.113663	5431.837891
7566.786897	0.087795	0.113663	5512.873047
7566.787814	0.087949	0.113663	5593.522461
7566.788725	0.087836	0.113663	5673.541016
7566.789618	0.087861	0.113663	5752.000977
7566.790546	0.087905	0.113663	5833.577148
7566.791446	0.087971	0.113663	5912.750977
7566.792347	0.087836	0.113663	5991.891113
7566.793235	0.087788	0.113663	6069.847168
7566.794168	0.088059	0.113663	6152.006348
7567.782356	0.999082	0.126650	444.591492
7567.783252	1.471582	0.126650	1763.128906
7567.784207	1.468224	0.126650	3165.282715
7567.785136	1.432848	0.126650	4496.398437
7567.786047	0.920801	0.126650	5335.248047
7567.786981	0.106578	0.126650	5434.791992
7567.787879	0.087869	0.126650	5513.698242
7567.788783	0.087927	0.126650	5593.184570
7567.789669	0.087894	0.126650	5671.059082
7567.790619	0.087792	0.126650	5754.461426
7567.791517	0.087935	0.126650	5833.426758
7567.792418	0.087905	0.126650	5912.629395
7567.793303	0.087894	0.126650	5990.416016
7567.794238	0.087894	0.126650	6072.597168
7567.795144	0.087858	0.126650	6152.196289
7568.852428	0.991919	0.113055	433.468567
7568.853323	1.471088	0.113055	1750.092041
7568.854311	1.467839	0.113055	3200.317383
7568.855224	1.432698	0.113055	4508.370605
7568.856130	0.920098	0.113055	5341.979004
7568.857017	0.107834	0.113055	5437.628418
7568.857970	0.087773	0.113055	5521.276367
7568.858870	0.087839	0.113055	5600.332031
7568.859756	0.087960	0.113055	5678.264648
7568.860693	0.087880	0.113055	5760.607910
7568.861610	0.087909	0.113055	5841.220215
7568.862511	0.087887	0.113055	5920.406250
7568.863399	0.087806	0.113055	5998.378418
7568.864349	0.087938	0.113055	6081.919922
7568.865249	0.087997	0.113055	6161.117187
7569.852878	1.001748	0.126876	442.772644
7569.853845	1.475764	0.126876	1869.836670
7569.854770	1.467089	0.126876	3226.893555
7569.855677	1.431987	0.126876	4525.706055
7569.856622	0.862474	0.126876	5340.744141
7569.857536	0.099796	0.126876	5431.958008
7569.858447	0.087667	0.126876	5511.822754
7569.859345	0.087869	0.126876	5590.729004
7569.860278	0.087997	0.126876	5672.830078
7569.861183	0.087949	0.126876	5752.424316
7569.862085	0.087872	0.126876	5831.685059
7569.862973	0.087916	0.126876	5909.754883
7569.863909	0.087927	0.126876	5992.054687
7569.864819	0.087711	0.126876	6071.872070
7569.865717	0.087843	0.126876	6150.754883
7570.924496	1.006919	0.113264	446.065063
7570.925404	1.472303	0.113264	1782.916504
7570.926298	1.469385	0.113264	3096.546387
7570.927261	1.433437	0.113264	4476.946777
7570.928186	0.932512	0.113264	5339.520508
7570.929082	0.108223	0.113264	5436.487793
7570.930021	0.087770	0.113264	5518.903809
7570.930926	0.087909	0.113264	5598.461426
7570.931823	0.087759	0.113264	5677.181152
7570.932710	0.087854	0.113264	5755.107422
7570.933646	0.087920	0.113264	5837.400391
7570.934542	0.087942	0.113264	5916.196289
7570.935442	0.087770	0.113264	5995.188965
7570.936331	0.087744	0.113264	6073.193359
7570.937283	0.087905	0.113264	6156.879395
7571.924955	1.009142	0.126900	456.132080
7571.925852	1.472197	0.126900	1776.692993
7571.926776	1.468901	0.126900	3133.957764
7571.927713	1.433390	0.126900	4477.043945
7571.928631	0.928242	0.126900	5329.170410
7571.929523	0.108164	0.126900	5425.652832
7571.930459	0.087971	0.126900	5507.993652
7571.931371	0.087858	0.126900	5588.119629
7571.932272	0.087803	0.126900	5667.229980
7571.933160	0.087784	0.126900	5745.182617
7571.934117	0.088004	0.126900	5829.402344
7571.935016	0.087799	0.126900	5908.333496
7571.935905	0.087788	0.126900	5986.376953
7571.936833	0.087843	0.126900	6067.895508
7571.937747	0.087836	0.126900	6148.177246
7572.996037	1.001371	0.113039	437.599030
7572.997023	1.476573	0.113039	1893.500488
7572.997938	1.466843	0.113039	3235.662109
7572.998838	1.432126	0.113039	4524.576172
7572.999789	0.862291	0.113039	5344.615234
7573.000687	0.102209	0.113039	5436.399414
7573.001580	0.087755	0.113039	5514.764648
7573.002467	0.087876	0.113039	5592.710449
7573.003411	0.087920	0.113039	5675.707031
7573.004311	0.087905	0.113039	5754.821777
7573.005212	0.087935	0.113039	5834.050781
7573.006100	0.087876	0.113039	5912.084473
7573.007062	0.088026	0.113039	5996.765625
7573.007973	0.087946	0.113039	6076.883789
7573.008872	0.087982	0.113039	6155.979980
7573.997526	1.010222	0.126521	447.528381
7573.998431	1.472245	0.126521	1779.909912
7573.999331	1.468945	0.126521	3101.960693
7574.000298	1.432936	0.126521	4487.609375
7574.001226	0.913905	0.126521	5335.713379
7574.002120	0.106176	0.126521	5430.634277
7574.003053	0.087806	0.126521	5512.557617
7574.003950	0.087858	0.126521	5591.365723
7574.004844	0.087828	0.126521	5669.884277
7574.005727	0.087825	0.126521	5747.433594
7574.006658	0.087990	0.126521	5829.352051
7574.007566	0.087927	0.126521	5909.189941
7574.008471	0.087854	0.126521	5988.697754
7574.009360	0.087817	0.126521	6066.767578
7574.010306	0.088019	0.126521	6150.033203
7575.067099	1.012152	0.112628	449.395508
7575.068004	1.472270	0.112628	1781.800293
7575.068902	1.469755	0.112628	3101.639893
7575.069837	1.434932	0.112628	4443.300781
7575.070784	0.927601	0.112628	5321.739258
7575.071692	0.105864	0.112628	5417.863770
7575.072583	0.087817	0.112628	5496.108887
7575.073527	0.087850	0.112628	5579.039551
7575.074442	0.087781	0.112628	5659.358887
7575.075344	0.087960	0.112628	5738.699219
7575.076228	0.087861	0.112628	5816.368652
7575.077164	0.087957	0.112628	5898.695801
7575.078066	0.087850	0.112628	5977.937012
7575.078957	0.087876	0.112628	6056.234375
7575.079885	0.087854	0.112628	6137.762695
7576.068564	0.998005	0.126091	439.122345
7576.069522	1.472567	0.126091	1849.841553
7576.070439	1.467748	0.126091	3195.766113
7576.071338	1.433013	0.126091	4484.044434
7576.072240	0.937372	0.126091	5329.553711
7576.073173	0.104136	0.126091	5426.712402
7576.074076	0.087700	0.126091	5505.905762
7576.074979	0.087887	0.126091	5585.267578
7576.075882	0.087887	0.126091	5664.629395
7576.076808	0.088033	0.126091	5746.148437
7576.077715	0.087792	0.126091	5825.775391
7576.078610	0.087891	0.126091	5904.437500
7576.079558	0.087957	0.126091	5987.820312
7576.080452	0.087931	0.126091	6066.430664
7576.081352	0.087854	0.126091	6145.499023
7577.138639	0.993120	0.114678	436.972870
7577.139577	1.473816	0.114678	1819.412231
7577.140491	1.468466	0.114678	3161.589844
7577.141398	1.433946	0.114678	4462.179199
7577.142296	0.957118	0.114678	5321.670898
7577.143256	0.105645	0.114678	5423.089844
7577.144164	0.087671	0.114678	5502.694824
7577.145051	0.087817	0.114678	5580.588867
7577.145981	0.087946	0.114678	5662.378418
7577.146886	0.087902	0.114678	5741.929199
7577.147787	0.087982	0.114678	5821.201172
7577.148681	0.087850	0.114678	5899.739258
7577.149627	0.087876	0.114678	5982.870117
7577.150522	0.087887	0.114678	6061.528809
7577.151421	0.087737	0.114678	6140.404297
7578.139658	1.029053	0.125579	520.700684
7578.140589	1.476519	0.125579	1895.339478
7578.141491	1.466865	0.125579	3218.451904
7578.142388	1.432141	0.125579	4503.082520
7578.143356	0.838015	0.125579	5314.281250
7578.144255	0.100045	0.125579	5404.221680
7578.145157	0.087770	0.125579	5483.390137
7578.146048	0.087858	0.125579	5561.671387
7578.147005	0.087894	0.125579	5645.786133
7578.147909	0.087935	0.125579	5725.278809
7578.148796	0.087905	0.125579	5803.250977
7578.149721	0.087913	0.125579	5884.570312
7578.150629	0.087883	0.125579	5964.368164
7578.151524	0.087865	0.125579	6043.007324
7578.152412	0.087828	0.125579	6120.999023
7579.210713	1.010160	0.114195	448.510986
7579.211615	1.472600	0.114195	1776.796265
7579.212559	1.468645	0.114195	3163.197266
7579.213477	1.433178	0.114195	4478.854492
7579.214393	0.933860	0.114195	5334.270020
7579.215279	0.109618	0.114195	5431.391602
7579.216233	0.087872	0.114195	5515.221680
7579.217134	0.087869	0.114195	5594.391113
7579.218028	0.087865	0.114195	5672.942383
7579.218934	0.087836	0.114195	5752.521484
7579.219848	0.088008	0.114195	5832.960449
7579.220758	0.087920	0.114195	5912.967773
7579.221655	0.087880	0.114195	5991.795898
7579.222577	0.087828	0.114195	6072.773437
7579.223482	0.087891	0.114195	6152.314453
7580.212211	1.009871	0.125704	485.747711
7580.213132	1.475493	0.125704	1844.676880
7580.214058	1.467067	0.125704	3203.180664
7580.214963	1.431976	0.125704	4499.119141
7580.215915	0.864261	0.125704	5321.895996
7580.216813	0.101752	0.125704	5413.269043
7580.217722	0.087722	0.125704	5493.008301
7580.218612	0.087825	0.125704	5571.172363
7580.219559	0.087971	0.125704	5654.480957
7580.220468	0.087894	0.125704	5734.376953
7580.221359	0.087979	0.125704	5812.765625
7580.222294	0.087832	0.125704	5894.888672
7580.223196	0.087887	0.125704	5974.162598
7580.224091	0.087803	0.125704	6052.746094
7580.224981	0.087795	0.125704	6130.883789
7581.281739	0.995852	0.113873	437.179047
7581.282702	1.471981	0.113873	1854.697021
7581.283625	1.467191	0.113873	3208.914551
7581.284535	1.432152	0.113873	4512.172852
7581.285438	0.915388	0.113873	5338.768555
7581.286376	0.101631	0.113873	5434.098145
7581.287290	0.087817	0.113873	5514.363281
7581.288192	0.087861	0.113873	5593.614258
7581.289077	0.087949	0.113873	5671.449219
7581.290013	0.087883	0.113873	5753.708008
7581.290911	0.087880	0.113873	5832.624023
7581.291797	0.087942	0.113873	5910.540527
7581.292727	0.087942	0.113873	5992.326660
7581.293637	0.087876	0.113873	6072.293945
7581.294538	0.087920	0.113873	6151.509766
7582.282238	1.037699	0.126094	509.510193
7582.283152	1.475065	0.126094	1857.719238
7582.284054	1.467810	0.126094	3181.683838
7582.284946	1.433265	0.126094	4460.156738
7582.285905	0.888779	0.126094	5312.496094
7582.286814	0.103693	0.126094	5406.752930
7582.287713	0.087836	0.126094	5485.717285
7582.288629	0.087839	0.126094	5566.178223
7582.289560	0.087913	0.126094	5648.024902
7582.290470	0.087788	0.126094	5727.912109
7582.291367	0.087806	0.126094	5806.674316
7582.292309	0.087953	0.126094	5889.525879
7582.293213	0.087990	0.126094	5969.068359
7582.294116	0.087894	0.126094	6048.437012
7582.295008	0.087861	0.126094	6126.809082
7583.352781	1.000089	0.115222	442.039368
7583.353763	1.475823	0.115222	1891.297363
7583.354671	1.467125	0.115222	3223.447021
7583.355566	1.432764	0.115222	4505.770508
7583.356494	0.885385	0.115222	5327.407227
7583.357425	0.100840	0.115222	5421.289062
7583.358346	0.087762	0.115222	5502.118164
7583.359243	0.087968	0.115222	5581.024902
7583.360180	0.087876	0.115222	5663.364746
7583.361085	0.087887	0.115222	5742.902344
7583.362000	0.087935	0.115222	5823.362305
7583.362888	0.087913	0.115222	5901.428711
7583.363839	0.087865	0.115222	5984.988281
7583.364763	0.087938	0.115222	6066.243164
7583.365654	0.087975	0.115222	6144.628906
7584.354760	0.991432	0.127529	432.264313
7584.355725	1.474479	0.127529	1855.136353
7584.356639	1.467477	0.127529	3196.410156
7584.357547	1.432632	0.127529	4497.239746
7584.358488	0.888007	0.127529	5332.854004
7584.359404	0.101858	0.127529	5426.155762
7584.360312	0.087711	0.127529	5505.797363
7584.361212	0.087803	0.127529	5584.819824
7584.362160	0.087924	0.127529	5668.171387
7584.363061	0.087986	0.127529	5747.446777
7584.363958	0.087795	0.127529	5826.199219
7584.364844	0.087836	0.127529	5904.021484
7584.365789	0.087913	0.127529	5987.099121
7584.366688	0.087869	0.127529	6066.093262
7584.367583	0.087894	0.127529	6144.758789
7585.424323	0.989165	0.115593	428.308441
7585.425288	1.472644	0.115593	1849.410034
7585.426205	1.467678	0.115593	3195.270996
7585.427108	1.433258	0.115593	4489.502930
7585.428009	0.933776	0.115593	5330.834961
7585.428983	0.100444	0.115593	5428.667969
7585.429891	0.087821	0.115593	5508.409668
7585.430789	0.087806	0.115593	5587.259766
7585.431712	0.087942	0.115593	5668.430176
7585.432619	0.088015	0.115593	5748.259766
7585.433528	0.087876	0.115593	5828.139160
7585.434419	0.087850	0.115593	5906.414062
7585.435350	0.088026	0.115593	5988.366211
7585.436254	0.087902	0.115593	6067.829102
7585.437155	0.087748	0.115593	6146.889648
7586.427861	0.999565	0.126417	439.808777
7586.428759	1.471077	0.126417	1760.835449
7586.429729	1.467788	0.126417	3184.589844
7586.430635	1.432991	0.126417	4482.879395
7586.431531	0.950442	0.126417	5334.475586
7586.432465	0.110446	0.126417	5437.631836
7586.433391	0.087792	0.126417	5518.926758
7586.434290	0.087806	0.126417	5597.864746
7586.435176	0.087942	0.126417	5675.781250
7586.436107	0.087832	0.126417	5757.552734
7586.437020	0.087770	0.126417	5837.686523
7586.437933	0.087737	0.126417	5917.790039
7586.438821	0.087931	0.126417	5995.872559
7586.439766	0.087880	0.126417	6078.918945
7586.440657	0.087806	0.126417	6157.154297
7587.495395	1.015972	0.114336	458.203217
7587.496317	1.473010	0.114336	1816.318604
7587.497217	1.469022	0.114336	3138.438477
7587.498154	1.433595	0.114336	4481.716797
7587.499081	0.915696	0.114336	5330.566895
7587.499988	0.105612	0.114336	5426.356445
7587.500882	0.087697	0.114336	5504.757324
7587.501813	0.087773	0.114336	5586.474609
7587.502724	0.087887	0.114336	5666.539551
7587.503623	0.087817	0.114336	5745.487305
7587.504509	0.087766	0.114336	5823.248047
7587.505454	0.087935	0.114336	5906.346191
7587.506360	0.087814	0.114336	5985.905273
7587.507252	0.087924	0.114336	6064.333008
7587.508182	0.087916	0.114336	6146.095215
7588.498896	1.001191	0.126268	442.526581
7588.499829	1.473355	0.126268	1817.166382
7588.500734	1.468565	0.126268	3146.217285
7588.501695	1.432346	0.126268	4522.702148
7588.502613	0.891921	0.126268	5341.485840
7588.503509	0.104832	0.126268	5435.415039
7588.504396	0.087751	0.126268	5513.250488
7588.505331	0.087982	0.126268	5595.513672
7588.506231	0.087821	0.126268	5674.552734
7588.507130	0.087781	0.126268	5753.467773
7588.508053	0.087960	0.126268	5834.655273
7588.508976	0.087993	0.126268	5915.873047
7588.509885	0.087836	0.126268	5995.715820
7588.510784	0.087836	0.126268	6074.680176
7588.511722	0.087894	0.126268	6157.125000
7589.566935	1.005282	0.113611	450.366302
7589.567832	1.471780	0.113611	1770.552856
7589.568748	1.469297	0.113611	3116.428711
7589.569691	1.433730	0.113611	4468.436523
7589.570604	0.945498	0.113611	5331.676270
7589.571492	0.110394	0.113611	5429.706543
7589.572434	0.087784	0.113611	5512.399414
7589.573348	0.087740	0.113611	5592.594238
7589.574266	0.087792	0.113611	5673.187012
7589.575153	0.087803	0.113611	5751.067871
7589.576102	0.087850	0.113611	5834.437988
7589.576995	0.087865	0.113611	5912.901367
7589.577881	0.087847	0.113611	5990.733398
7589.578803	0.087876	0.113611	6071.754883
7589.579730	0.087880	0.113611	6153.219238
7590.570445	0.998178	0.129474	439.198120
7590.571399	1.472311	0.129474	1843.782593
7590.572312	1.467810	0.129474	3183.893066
7590.573219	1.433269	0.129474	4483.868164
7590.574116	0.952632	0.129474	5338.378906
7590.575047	0.106029	0.129474	5437.091797
7590.575945	0.087770	0.129474	5515.909180
7590.576845	0.087806	0.129474	5594.935059
7590.577742	0.087876	0.129474	5673.759766
7590.578680	0.088030	0.129474	5756.331543
7590.579586	0.087861	0.129474	5835.934082
7590.580485	0.087825	0.129474	5914.888672
7590.581421	0.088015	0.129474	5997.270996
7590.582331	0.087825	0.129474	6077.191406
7590.583226	0.087916	0.129474	6155.876465
7591.638498	1.032982	0.115037	479.303741
7591.639422	1.474043	0.115037	1841.319336
7591.640327	1.468129	0.115037	3169.975586
7591.641266	1.433031	0.115037	4515.591797
7591.642179	0.914681	0.115037	5350.695801
7591.643074	0.106893	0.115037	5446.365234
7591.643961	0.087642	0.115037	5524.103516
7591.644913	0.087722	0.115037	5607.615234
7591.645815	0.087795	0.115037	5686.806641
7591.646709	0.087836	0.115037	5765.331543
7591.647599	0.087781	0.115037	5843.456543
7591.648537	0.088044	0.115037	5926.041992
7591.649442	0.087697	0.115037	6005.407227
7591.650337	0.087828	0.115037	6084.013672
7591.651269	0.087953	0.115037	6165.985840
7592.642514	1.004656	0.126219	447.071838
7592.643411	1.471377	0.126219	1766.896973
7592.644305	1.469934	0.126219	3081.018066
7592.645265	1.433606	0.126219	4457.279785
7592.646189	0.937742	0.126219	5323.752930
7592.647086	0.109358	0.126219	5421.847168
7592.647979	0.087770	0.126219	5500.225586
7592.648918	0.087909	0.126219	5582.771973
7592.649824	0.087686	0.126219	5662.214844
7592.650713	0.087968	0.126219	5740.417969
7592.651636	0.087924	0.126219	5821.571289
7592.652560	0.087968	0.126219	5902.853516
7592.653461	0.087836	0.126219	5981.993652
7592.654350	0.087847	0.126219	6060.089355
7592.655300	0.087942	0.126219	6143.634277
7593.709512	0.990128	0.114864	430.705780
7593.710406	1.470527	0.114864	1745.357178
7593.711357	1.468689	0.114864	3142.080322
7593.712275	1.433397	0.114864	4457.938965
7593.713198	0.943334	0.114864	5328.636230
7593.714094	0.109662	0.114864	5426.893066
7593.715049	0.087883	0.114864	5510.821777
7593.715956	0.087733	0.114864	5590.395508
7593.716849	0.087832	0.114864	5668.829590
7593.717792	0.087887	0.114864	5751.707031
7593.718692	0.087880	0.114864	5830.798828
7593.719586	0.087832	0.114864	5909.320801
7593.720472	0.087781	0.114864	5987.094727
7593.721404	0.087762	0.114864	6068.889160
7593.722312	0.087792	0.114864	6148.604004
7594.714095	1.006875	0.125212	480.279388
7594.715027	1.474878	0.125212	1854.865723
7594.715955	1.466836	0.125212	3216.089355
7594.716855	1.432126	0.125212	4505.002930
7594.717810	0.845105	0.125212	5312.078125
7594.718710	0.100829	0.125212	5402.824219
7594.719608	0.087869	0.125212	5481.730469
7594.720493	0.087953	0.125212	5559.568848
7594.721442	0.088041	0.125212	5643.119629
7594.722355	0.087865	0.125212	5723.340332
7594.723250	0.087788	0.125212	5801.910645
7594.724174	0.087876	0.125212	5883.107910
7594.725078	0.087880	0.125212	5962.551270
7594.725993	0.087869	0.125212	6042.951172
7594.726884	0.087781	0.125212	6121.164062
7595.780554	1.004971	0.115726	439.172180
7595.781519	1.474929	0.115726	1862.478760
7595.782434	1.467700	0.115726	3205.424316
7595.783332	1.432855	0.115726	4492.128418
7595.784291	0.873896	0.115726	5330.195312
7595.785192	0.102374	0.115726	5422.434570
7595.786092	0.087715	0.115726	5501.377930
7595.786982	0.087795	0.115726	5579.515625
7595.787942	0.087916	0.115726	5663.915039
7595.788849	0.087836	0.115726	5743.582031
7595.789747	0.087806	0.115726	5822.432129
7595.790665	0.087781	0.115726	5903.014648
7595.791575	0.087971	0.115726	5983.068359
7595.792485	0.087817	0.115726	6062.981934
7595.793370	0.087850	0.115726	6140.729492
7596.785109	1.010376	0.127150	452.648437
7596.786009	1.471915	0.127150	1777.372192
7596.786902	1.469938	0.127150	3090.026611
7596.787856	1.433925	0.127150	4457.990723
7596.788776	0.953595	0.127150	5335.297852
7596.789670	0.111105	0.127150	5434.625488
7596.790599	0.087891	0.127150	5516.275879
7596.791511	0.087982	0.127150	5596.515625
7596.792423	0.087861	0.127150	5676.645020
7596.793320	0.087898	0.127150	5755.489258
7596.794245	0.088030	0.127150	5836.916992
7596.795150	0.087942	0.127150	5916.504395
7596.796048	0.087880	0.127150	5995.420410
7596.796936	0.087836	0.127150	6073.418457
7596.797881	0.087847	0.127150	6156.433594
7597.852624	0.997819	0.115367	441.035828
7597.853524	1.471146	0.115367	1765.067383
7597.854487	1.468001	0.115367	3178.751953
7597.855405	1.432910	0.115367	4494.163574
7597.856312	0.930802	0.115367	5338.400879
7597.857249	0.108164	0.115367	5439.750488
7597.858142	0.087894	0.115367	5518.240234
7597.859050	0.087858	0.115367	5598.015137
7597.859941	0.087953	0.115367	5676.381348
7597.860892	0.087971	0.115367	5760.041992
7597.861798	0.087902	0.115367	5839.680664
7597.862711	0.087872	0.115367	5919.908203
7597.863598	0.087927	0.115367	5997.899902
7597.864545	0.088022	0.115367	6081.257324
7597.865454	0.087957	0.115367	6161.209961
7598.857216	1.032389	0.128604	505.870514
7598.858146	1.476174	0.128604	1878.712524
7598.859057	1.467458	0.128604	3215.567383
7598.859951	1.432181	0.128604	4495.937500
7598.860928	0.834551	0.128604	5311.293457
7598.861833	0.100045	0.128604	5401.834473
7598.862723	0.087795	0.128604	5479.972168
7598.863629	0.087836	0.128604	5559.551270
7598.864549	0.087898	0.128604	5640.417480
7598.865454	0.087832	0.128604	5719.905273
7598.866355	0.087861	0.128604	5799.068359
7598.867292	0.087975	0.128604	5881.500977
7598.868202	0.087869	0.128604	5961.461426
7598.869107	0.087909	0.128604	6041.019043
7598.869995	0.087843	0.128604	6119.023437
7599.924192	1.008889	0.115343	450.973419
7599.925112	1.472655	0.115343	1805.815918
7599.926007	1.469246	0.115343	3120.790527
7599.926944	1.433738	0.115343	4464.203125
7599.927878	0.924239	0.115343	5327.442871
7599.928786	0.106168	0.115343	5423.843750
7599.929680	0.087678	0.115343	5502.228027
7599.930599	0.087935	0.115343	5583.040039
7599.931505	0.087898	0.115343	5662.675781
7599.932414	0.087861	0.115343	5742.541504
7599.933311	0.087854	0.115343	5821.346680
7599.934256	0.087909	0.115343	5904.420410
7599.935161	0.087880	0.115343	5983.951660
7599.936053	0.087792	0.115343	6062.261719
7599.936986	0.087832	0.115343	6144.208984
7600.928745	1.027229	0.126231	475.607056
7600.929646	1.472952	0.126231	1802.736450
7600.930538	1.469502	0.126231	3113.532227
7600.931503	1.432826	0.126231	4496.208984
7600.932409	0.916974	0.126231	5326.987305
7600.933319	0.105710	0.126231	5423.183594
7600.934216	0.087777	0.126231	5501.919434
7600.935168	0.087861	0.126231	5585.563477
7600.936068	0.087821	0.126231	5664.602539
7600.936961	0.087847	0.126231	5743.049805
7600.937888	0.087803	0.126231	5824.442871
7600.938799	0.087682	0.126231	5904.321289
7600.939717	0.087832	0.126231	5984.951172
7600.940604	0.087773	0.126231	6062.806152
7600.941548	0.087825	0.126231	6145.712891
7601.995723	0.994742	0.116205	431.718231
7601.996645	1.470802	0.116205	1787.797729
7601.997604	1.467546	0.116205	3195.174805
7601.998523	1.432097	0.116205	4511.271973
7601.999434	0.905999	0.116205	5336.636719
7602.000365	0.103601	0.116205	5433.089355
7602.001267	0.087773	0.116205	5512.261230
7602.002167	0.087847	0.116205	5591.323242
7602.003052	0.087843	0.116205	5669.064453
7602.004003	0.087957	0.116205	5752.710937
7602.004901	0.087905	0.116205	5831.649902
7602.005791	0.087887	0.116205	5909.869141
7602.006716	0.087894	0.116205	5991.171387
7602.007632	0.087990	0.116205	6071.769531
7602.008538	0.087839	0.116205	6151.352051
7602.999751	1.005978	0.126264	440.618317
7603.000733	1.476269	0.126264	1890.314941
7603.001647	1.466821	0.126264	3230.989746
7603.002549	1.432031	0.126264	4522.682129
7603.003489	0.875746	0.126264	5345.883301
7603.004386	0.103568	0.126264	5438.783691
7603.005282	0.087751	0.126264	5517.409180
7603.006170	0.087957	0.126264	5595.514648
7603.007116	0.087931	0.126264	5678.697266
7603.008017	0.087924	0.126264	5757.916504
7603.008924	0.087729	0.126264	5837.487305
7603.009854	0.087788	0.126264	5919.130371
7603.010742	0.087905	0.126264	5997.190430
7603.011677	0.087894	0.126264	6079.371582
7603.012592	0.087836	0.126264	6159.741211
7604.067816	1.027423	0.116000	474.669495
7604.068719	1.473153	0.116000	1804.926758
7604.069611	1.468799	0.116000	3115.095215
7604.070562	1.432903	0.116000	4477.785645
7604.071507	0.900875	0.116000	5329.112793
7604.072401	0.105099	0.116000	5423.071289
7604.073336	0.087847	0.116000	5505.208008
7604.074240	0.087861	0.116000	5584.634766
7604.075141	0.087799	0.116000	5663.741699
7604.076030	0.087854	0.116000	5741.843750
7604.076990	0.087990	0.116000	5826.313477
7604.077888	0.087975	0.116000	5905.314941
7604.078789	0.087836	0.116000	5984.455078
7604.079671	0.087832	0.116000	6061.922852
7604.080617	0.087953	0.116000	6145.126465
7605.071329	1.023106	0.128455	467.559204
7605.072226	1.472640	0.128455	1788.517578
7605.073168	1.468480	0.128455	3171.825928
7605.074085	1.433192	0.128455	4486.062988
7605.074998	0.935914	0.128455	5340.552734
7605.075886	0.109753	0.128455	5438.013672
7605.076828	0.087821	0.128455	5520.741211
7605.077733	0.087861	0.128455	5600.255859
7605.078634	0.087891	0.128455	5679.445312
7605.079526	0.087858	0.128455	5757.814453
7605.080485	0.088037	0.128455	5842.242187
7605.081394	0.087894	0.128455	5922.138184
7605.082290	0.087861	0.128455	6000.861816
7605.083242	0.088096	0.128455	6084.729004
7605.084145	0.088074	0.128455	6164.259766
7606.138315	0.989260	0.116491	430.328217
7606.139208	1.470304	0.116491	1743.309692
7606.140158	1.468634	0.116491	3138.511963
7606.141079	1.433350	0.116491	4458.626953
7606.141998	0.943539	0.116491	5325.739258
7606.142917	0.109860	0.116491	5426.700195
7606.143840	0.087744	0.116491	5507.687988
7606.144747	0.087788	0.116491	5587.312012
7606.145639	0.087869	0.116491	5665.690918
7606.146579	0.087968	0.116491	5748.380371
7606.147473	0.087938	0.116491	5826.997070
7606.148379	0.087828	0.116491	5906.569336
7606.149270	0.087898	0.116491	5984.886230
7606.150204	0.087942	0.116491	6067.023926
7606.151108	0.087887	0.116491	6146.473633
7607.143382	1.001151	0.127182	437.503082
7607.144298	1.472329	0.127182	1786.156494
7607.145208	1.469268	0.127182	3123.189941
7607.146115	1.434360	0.127182	4424.154785
7607.147062	0.946989	0.127182	5320.953125
7607.147964	0.109933	0.127182	5420.112793
7607.148855	0.087682	0.127182	5498.237305
7607.149795	0.087982	0.127182	5580.940430
7607.150688	0.087909	0.127182	5659.442871
7607.151596	0.088022	0.127182	5739.367187
7607.152487	0.087898	0.127182	5817.684082
7607.153427	0.088052	0.127182	5900.452637
7607.154335	0.087850	0.127182	5980.220703
7607.155229	0.087876	0.127182	6058.781738
7607.156144	0.087898	0.127182	6139.208496
7608.209928	1.022856	0.115432	511.428223
7608.210858	1.476687	0.115432	1884.747070
7608.211773	1.466418	0.115432	3226.520020
7608.212670	1.432039	0.115432	4511.058594
7608.213628	0.834349	0.115432	5310.365234
7608.214542	0.099620	0.115432	5401.418457
7608.215436	0.087876	0.115432	5479.979492
7608.216319	0.087858	0.115432	5557.557617
7608.217253	0.087979	0.115432	5639.729492
7608.218160	0.087887	0.115432	5719.442871
7608.219049	0.087927	0.115432	5797.610352
7608.219985	0.087935	0.115432	5879.916992
7608.220899	0.087920	0.115432	5960.275879
7608.221796	0.087799	0.115432	6039.031738
7608.222684	0.087817	0.115432	6117.013672
7609.214425	1.015338	0.126759	455.886841
7609.215327	1.472413	0.126759	1784.003662
7609.216267	1.468352	0.126759	3164.254639
7609.217183	1.432954	0.126759	4476.840820
7609.218102	0.931263	0.126759	5332.671875
7609.218989	0.109003	0.126759	5429.357422
7609.219939	0.087869	0.126759	5512.832520
7609.220844	0.087825	0.126759	5592.313965
7609.221736	0.087902	0.126759	5670.722168
7609.222660	0.087909	0.126759	5751.950195
7609.223567	0.088008	0.126759	5831.773437
7609.224467	0.087858	0.126759	5910.845215
7609.225359	0.087839	0.126759	5989.197754
7609.226290	0.087931	0.126759	6071.061523
7609.227199	0.087876	0.126759	6150.940918
7610.281938	1.004656	0.116938	447.071838
7610.282840	1.471923	0.116938	1774.746094
7610.283786	1.468418	0.116938	3163.869629
7610.284705	1.432874	0.116938	4480.680664
7610.285632	0.918475	0.116938	5332.107422
7610.286520	0.107856	0.116938	5427.883789
7610.287472	0.087744	0.116938	5511.416016
7610.288364	0.087902	0.116938	5589.824219
7610.289250	0.087968	0.116938	5667.763672
7610.290175	0.087942	0.116938	5749.109863
7610.291085	0.087869	0.116938	5829.070312
7610.291989	0.087748	0.116938	5908.394531
7610.292876	0.087821	0.116938	5986.291992
7610.293809	0.087979	0.116938	6068.375977
7610.294716	0.087810	0.116938	6148.019531
7611.286498	1.016763	0.126743	458.559998
7611.287419	1.472783	0.126743	1814.993408
7611.288319	1.469103	0.126743	3137.186035
7611.289260	1.433313	0.126743	4485.933594
7611.290181	0.919720	0.126743	5332.996094
7611.291082	0.106849	0.126743	5429.267578
7611.291970	0.087719	0.126743	5507.161621
7611.292907	0.087964	0.126743	5589.583984
7611.293808	0.087946	0.126743	5668.822754
7611.294709	0.087891	0.126743	5748.012207
7611.295598	0.087869	0.126743	5826.127441
7611.296550	0.087990	0.126743	5909.893555
7611.297465	0.087898	0.126743	5990.320312
7611.298357	0.087880	0.126743	6068.708984
7611.299286	0.087854	0.126743	6150.325195
7612.352993	1.020696	0.117216	465.437286
7612.353910	1.472824	0.117216	1816.016357
7612.354805	1.468649	0.117216	3130.457031
7612.355747	1.433445	0.117216	4480.761719
7612.356667	0.928638	0.117216	5335.108398
7612.357567	0.107714	0.117216	5432.050781
7612.358455	0.087803	0.117216	5510.019531
7612.359397	0.087902	0.117216	5592.822754
7612.360296	0.087990	0.117216	5671.925293
7612.361192	0.087847	0.117216	5750.635742
7612.362080	0.087869	0.117216	5828.663086
7612.363025	0.087946	0.117216	5911.771484
7612.363921	0.087766	0.117216	5990.410156
7612.364819	0.087920	0.117216	6069.362305
7612.365751	0.087905	0.117216	6151.290039
7613.358035	0.998708	0.128290	444.425262
7613.358930	1.470981	0.128290	1760.953613
7613.359874	1.468601	0.128290	3147.312988
7613.360794	1.433042	0.128290	4465.711426
7613.361722	0.931783	0.128290	5330.406250
7613.362624	0.108274	0.128290	5428.069336
7613.363571	0.087803	0.128290	5511.218750
7613.364469	0.087777	0.128290	5590.042480
7613.365360	0.087850	0.128290	5668.317383
7613.366303	0.087898	0.128290	5751.205078
7613.367210	0.087817	0.128290	5830.855469
7613.368107	0.087887	0.128290	5909.689941
7613.368990	0.087880	0.128290	5987.287598
7613.369927	0.087931	0.128290	6069.678711
7613.370828	0.087865	0.128290	6148.845215
7614.424514	0.988802	0.114779	428.151489
7614.425440	1.470718	0.114779	1790.036133
7614.426390	1.467671	0.114779	3184.323242
7614.427304	1.432778	0.114779	4493.882812
7614.428209	0.928656	0.114779	5334.316406
7614.429144	0.104755	0.114779	5432.262207
7614.430039	0.087832	0.114779	5510.872070
7614.430934	0.087839	0.114779	5589.488281
7614.431822	0.087872	0.114779	5667.519043
7614.432767	0.087858	0.114779	5750.544434
7614.433675	0.087953	0.114779	5830.405762
7614.434573	0.087832	0.114779	5909.278809
7614.435506	0.087902	0.114779	5991.291016
7614.436423	0.087968	0.114779	6071.957031
7614.437329	0.087766	0.114779	6151.473145
7615.429067	0.997031	0.126074	438.693756
7615.430045	1.474783	0.126074	1881.031250
7615.430950	1.466598	0.126074	3208.302246
7615.431870	1.431376	0.126074	4525.167969
7615.432776	0.873607	0.126074	5316.656250
7615.433742	0.098445	0.126074	5411.753906
7615.434644	0.087766	0.126074	5490.918945
7615.435564	0.087788	0.126074	5571.684082
7615.436454	0.087942	0.126074	5649.952148
7615.437402	0.087814	0.126074	5733.199707
7615.438316	0.087869	0.126074	5813.511719
7615.439203	0.087843	0.126074	5891.428711
7615.440147	0.087781	0.126074	5974.293945
7615.441053	0.087792	0.126074	6053.833496
7615.441935	0.087847	0.126074	6131.314453
7616.497118	1.021934	0.115786	464.979767
7616.498017	1.472527	0.115786	1788.781372
7616.498974	1.467740	0.115786	3193.408936
7616.499893	1.432397	0.115786	4509.782227
7616.500808	0.912484	0.115786	5344.705078
7616.501695	0.107472	0.115786	5440.032715
7616.502644	0.087916	0.115786	5523.465332
7616.503551	0.087828	0.115786	5603.125488
7616.504441	0.087916	0.115786	5681.371094
7616.505369	0.087960	0.115786	5762.998047
7616.506282	0.087968	0.115786	5843.312500
7616.507180	0.087861	0.115786	5922.211914
7616.508075	0.087839	0.115786	6000.828125
7616.509018	0.088004	0.115786	6083.815918
7616.509916	0.087953	0.115786	6162.797363
7617.500118	1.014126	0.126642	457.370789
7617.501017	1.472278	0.126642	1780.948486
7617.501963	1.468546	0.126642	3170.193115
7617.502872	1.433342	0.126642	4473.101074
7617.503783	0.950273	0.126642	5338.800293
7617.504671	0.111200	0.126642	5437.545898
7617.505614	0.087832	0.126642	5520.371582
7617.506527	0.087902	0.126642	5600.625977
7617.507431	0.087748	0.126642	5679.950195
7617.508315	0.087858	0.126642	5757.616211
7617.509269	0.087924	0.126642	5841.495117
7617.510180	0.087799	0.126642	5921.479980
7617.511077	0.087913	0.126642	6000.337402
7617.512012	0.087905	0.126642	6082.528809
7617.512911	0.087891	0.126642	6161.542480
7618.568650	1.009310	0.114912	443.087189
7618.569625	1.475856	0.114912	1882.046509
7618.570524	1.467400	0.114912	3201.239014
7618.571420	1.432998	0.114912	4485.205078
7618.572385	0.882250	0.114912	5336.576172
7618.573292	0.103092	0.114912	5430.080566
7618.574187	0.087810	0.114912	5508.670410
7618.575078	0.087916	0.114912	5587.003906
7618.576013	0.087931	0.114912	5669.219238
7618.576923	0.087777	0.114912	5749.096191
7618.577821	0.087850	0.114912	5827.985840
7618.578709	0.087883	0.114912	5906.026367
7618.579664	0.088019	0.114912	5990.084473
7618.580565	0.087887	0.114912	6069.270508
7618.581451	0.087946	0.114912	6147.190430
7619.572185	1.011603	0.128395	447.128418
7619.573104	1.472787	0.128395	1800.619629
7619.574009	1.468854	0.128395	3129.932129
7619.574941	1.433730	0.128395	4466.168945
7619.575881	0.916490	0.128395	5327.669922
7619.576798	0.105000	0.128395	5423.955078
7619.577691	0.087781	0.128395	5502.343262
7619.578638	0.088015	0.128395	5585.693359
7619.579536	0.088008	0.128395	5664.724609
7619.580433	0.087887	0.128395	5743.559082
7619.581321	0.087799	0.128395	5821.524414
7619.582257	0.087887	0.128395	5903.786621
7619.583167	0.087971	0.128395	5983.840332
7619.584063	0.087931	0.128395	6062.626465
7619.584993	0.087986	0.128395	6144.453125
7620.639718	1.024087	0.116829	466.983643
7620.640623	1.472919	0.116829	1799.974976
7620.641521	1.468894	0.116829	3119.041748
7620.642469	1.433866	0.116829	4478.346680
7620.643391	0.923939	0.116829	5330.218750
7620.644291	0.107864	0.116829	5427.295898
7620.645178	0.087762	0.116829	5505.141113
7620.646116	0.087777	0.116829	5587.476074
7620.647012	0.087784	0.116829	5666.130859
7620.647929	0.087861	0.116829	5746.699707
7620.648823	0.087737	0.116829	5825.136230
7620.649775	0.087832	0.116829	5908.752441
7620.650685	0.087825	0.116829	5988.672852
7620.651574	0.087854	0.116829	6066.774902
7620.652509	0.087927	0.116829	6148.986816
7621.643228	1.013903	0.127097	462.339569
7621.644123	1.472175	0.127097	1779.936523
7621.645073	1.467934	0.127097	3174.474121
7621.645991	1.432654	0.127097	4489.650391
7621.646913	0.916879	0.127097	5335.012695
7621.647801	0.107549	0.127097	5430.516113
7621.648757	0.087850	0.127097	5514.500977
7621.649659	0.087927	0.127097	5593.811523
7621.650558	0.087869	0.127097	5672.805664
7621.651482	0.087916	0.127097	5754.040527
7621.652381	0.087792	0.127097	5832.965332
7621.653293	0.087711	0.127097	5912.958008
7621.654180	0.087836	0.127097	5990.868164
7621.655113	0.087924	0.127097	6072.900879
7621.656018	0.087946	0.127097	6152.491699
7622.711298	1.018755	0.116225	499.189880
7622.712225	1.475984	0.116225	1867.427002
7622.713146	1.466660	0.116225	3218.220947
7622.714048	1.431811	0.116225	4509.714844
7622.715005	0.843058	0.116225	5316.521484
7622.715910	0.100573	0.116225	5407.539551
7622.716802	0.087814	0.116225	5485.869629
7622.717695	0.087847	0.116225	5564.316895
7622.718635	0.087997	0.116225	5647.033691
7622.719552	0.087847	0.116225	5727.588867
7622.720447	0.087920	0.116225	5806.277344
7622.721383	0.088015	0.116225	5888.659668
7622.722278	0.087990	0.116225	5967.410156
7622.723182	0.087667	0.116225	6046.661133
7622.724075	0.087920	0.116225	6125.173828
7623.714250	0.997804	0.129595	436.040344
7623.715223	1.475101	0.129595	1871.313965
7623.716141	1.467026	0.129595	3218.044189
7623.717042	1.432324	0.129595	4508.568359
7623.717996	0.873801	0.129595	5342.174805
7623.718891	0.102177	0.129595	5433.622559
7623.719794	0.087740	0.129595	5512.852051
7623.720685	0.087828	0.129595	5591.106934
7623.721610	0.087949	0.129595	5672.459961
7623.722519	0.087828	0.129595	5752.295898
7623.723422	0.087898	0.129595	5831.667969
7623.724310	0.087755	0.129595	5909.594727
7623.725250	0.087982	0.129595	5992.297852
7623.726155	0.087865	0.129595	6071.815430
7623.727044	0.087817	0.129595	6149.885254
7624.783813	0.994006	0.116427	433.386780
7624.784784	1.473860	0.116427	1864.504639
7624.785699	1.467169	0.116427	3206.964355
7624.786605	1.432749	0.116427	4505.035156
7624.787504	0.913656	0.116427	5326.412109
7624.788443	0.102598	0.116427	5422.751465
7624.789354	0.087858	0.116427	5502.790039
7624.790253	0.087905	0.116427	5581.816895
7624.791187	0.087946	0.116427	5663.958008
7624.792092	0.087968	0.116427	5743.568848
7624.792987	0.087854	0.116427	5822.198242
7624.793871	0.087880	0.116427	5899.883789
7624.794824	0.087942	0.116427	5983.692383
7624.795732	0.087825	0.116427	6063.437012
7624.796625	0.087905	0.116427	6141.936523
7625.784829	1.015023	0.129692	498.376404
7625.785754	1.475167	0.129692	1862.906250
7625.786654	1.467155	0.129692	3183.345459
7625.787550	1.432928	0.129692	4467.249512
7625.788513	0.872743	0.129692	5307.701172
7625.789427	0.101722	0.129692	5400.675293
7625.790328	0.087766	0.129692	5479.752441
7625.791216	0.087876	0.129692	5557.786133
7625.792171	0.087938	0.129692	5641.767090
7625.793075	0.087729	0.129692	5721.074707
7625.793966	0.087850	0.129692	5799.349609
7625.794908	0.087938	0.129692	5882.187500
7625.795812	0.087880	0.129692	5961.630859
7625.796701	0.087971	0.129692	6039.837402
7625.797593	0.088030	0.129692	6118.359863
7626.855385	1.009904	0.116499	456.476410
7626.856286	1.472102	0.116499	1782.840332
7626.857177	1.469539	0.116499	3092.199219
7626.858129	1.433687	0.116499	4457.068848
7626.859054	0.942513	0.116499	5328.893555
7626.859951	0.108717	0.116499	5426.412598
7626.860866	0.087817	0.116499	5506.765625
7626.861786	0.087949	0.116499	5587.678711
7626.862692	0.087784	0.116499	5667.211426
7626.863584	0.087850	0.116499	5745.573730
7626.864513	0.087803	0.116499	5827.142578
7626.865422	0.087865	0.116499	5907.011719
7626.866321	0.087781	0.116499	5985.926758
7626.867209	0.087748	0.116499	6063.846680
7626.868145	0.088033	0.116499	6146.246094
7627.856866	1.024424	0.127263	474.308228
7627.857774	1.473149	0.127263	1811.927856
7627.858738	1.467067	0.127263	3226.180176
7627.859652	1.431449	0.127263	4534.524414
7627.860586	0.861486	0.127263	5339.151855
7627.861472	0.102499	0.127263	5429.965820
7627.862422	0.087817	0.127263	5513.392090
7627.863329	0.087744	0.127263	5592.976074
7627.864219	0.087744	0.127263	5671.068359
7627.865150	0.087865	0.127263	5752.870605
7627.866049	0.087784	0.127263	5831.788574
7627.866967	0.087773	0.127263	5912.364746
7627.867858	0.087883	0.127263	5990.668945
7627.868799	0.087850	0.127263	6073.335937
7627.869704	0.087843	0.127263	6152.833984
7628.926929	1.001353	0.118533	442.597839
7628.927877	1.474548	0.118533	1840.469727
7628.928794	1.467781	0.118533	3186.424805
7628.929702	1.432811	0.118533	4487.417480
7628.930635	0.900505	0.118533	5327.588867
7628.931565	0.101777	0.118533	5422.241699
7628.932469	0.087759	0.118533	5501.575684
7628.933366	0.087810	0.118533	5580.341309
7628.934318	0.087957	0.118533	5664.076172
7628.935221	0.087913	0.118533	5743.461426
7628.936116	0.087902	0.118533	5822.133301
7628.937000	0.087858	0.118533	5899.799316
7628.937928	0.087982	0.118533	5981.446777
7628.938841	0.087887	0.118533	6061.687500
7628.939733	0.087854	0.118533	6140.053223
7629.927877	0.990985	0.127948	431.078522
7629.928826	1.472911	0.127948	1828.871338
7629.929751	1.467565	0.127948	3186.368652
7629.930651	1.433214	0.127948	4476.261230
7629.931611	0.890812	0.127948	5331.440430
7629.932530	0.103839	0.127948	5426.868652
7629.933445	0.087729	0.127948	5507.141113
7629.934330	0.087909	0.127948	5584.940430
7629.935274	0.087825	0.127948	5667.847168
7629.936177	0.087931	0.127948	5747.248535
7629.937102	0.087836	0.127948	5828.496582
7629.937989	0.087773	0.127948	5906.351562
7629.938937	0.087795	0.127948	5989.581543
7629.939844	0.087799	0.127948	6069.215332
7629.940762	0.087770	0.127948	6149.788086
7630.999009	1.018440	0.117841	462.371765
7630.999908	1.472417	0.117841	1786.074707
7631.000874	1.467480	0.117841	3203.660645
7631.001782	1.432097	0.117841	4504.004883
7631.002696	0.913956	0.117841	5339.360840
7631.003585	0.107040	0.117841	5434.519043
7631.004542	0.087854	0.117841	5518.595215
7631.005448	0.087781	0.117841	5598.124512
7631.006345	0.087744	0.117841	5676.831055
7631.007269	0.087880	0.117841	5758.031738
7631.008169	0.087905	0.117841	5837.146484
7631.009062	0.087938	0.117841	5915.675293
7631.009951	0.087861	0.117841	5993.784180
7631.010888	0.087997	0.117841	6076.237305
7631.011800	0.087957	0.117841	6156.453613
7631.999444	0.999474	0.126844	437.769562
7632.000388	1.471600	0.126844	1826.960205
7632.001307	1.467964	0.126844	3176.019043
7632.002226	1.432668	0.126844	4492.641602
7632.003131	0.927316	0.126844	5331.862305
7632.004076	0.103304	0.126844	5429.484863
7632.004978	0.087751	0.126844	5508.636719
7632.005883	0.087759	0.126844	5588.058594
7632.006770	0.087891	0.126844	5666.017578
7632.007725	0.087905	0.126844	5749.967285
7632.008629	0.087839	0.126844	5829.374023
7632.009527	0.087891	0.126844	5908.299805
7632.010451	0.087891	0.126844	5989.510742
7632.011353	0.087913	0.126844	6068.808105
7632.012266	0.087788	0.126844	6148.958496
7633.070590	1.055068	0.117011	516.983521
7633.071513	1.475709	0.117011	1879.063110
7633.072426	1.467030	0.117011	3218.461426
7633.073320	1.432181	0.117011	4498.831543
7633.074296	0.843574	0.117011	5322.160156
7633.075201	0.100133	0.117011	5412.780762
7633.076096	0.087825	0.117011	5491.383789
7633.077026	0.087935	0.117011	5573.163086
7633.077924	0.087960	0.117011	5652.151367
7633.078820	0.087740	0.117011	5730.766602
7633.079705	0.087850	0.117011	5808.514160
7633.080631	0.087894	0.117011	5889.904297
7633.081548	0.087883	0.117011	5970.493164
7633.082450	0.087832	0.117011	6049.717773
7633.083337	0.087872	0.117011	6127.660645
7634.071009	1.016049	0.128032	461.286102
7634.071927	1.472963	0.128032	1813.465820
7634.072821	1.469048	0.128032	3126.794434
7634.073758	1.433452	0.128032	4469.938965
7634.074677	0.933838	0.128032	5328.135742
7634.075577	0.108043	0.128032	5425.374512
7634.076469	0.087781	0.128032	5503.674805
7634.077430	0.087942	0.128032	5588.187012
7634.078340	0.087938	0.128032	5668.210937
7634.079238	0.087872	0.128032	5747.120117
7634.080155	0.087847	0.128032	5827.675293
7634.081070	0.087957	0.128032	5908.155762
7634.081978	0.087869	0.128032	5987.940430
7634.082867	0.088011	0.128032	6066.182617
7634.083802	0.087975	0.128032	6148.438965
7635.142097	0.995900	0.117647	441.183563
7635.142993	1.471190	0.117647	1759.369873
7635.143926	1.469531	0.117647	3130.442627
7635.144827	1.434573	0.117647	4422.992676
7635.145742	0.986810	0.117647	5325.923828
7635.146634	0.116082	0.117647	5429.468750
7635.147581	0.087781	0.117647	5512.597168
7635.148492	0.087836	0.117647	5592.615723
7635.149386	0.087843	0.117647	5671.147461
7635.150276	0.087850	0.117647	5749.334473
7635.151232	0.087968	0.117647	5833.431641
7635.152141	0.087788	0.117647	5913.230957
7635.153030	0.087898	0.117647	5991.372070
7635.153968	0.087872	0.117647	6073.796387
7635.154872	0.087865	0.117647	6153.226562
7636.142539	0.994816	0.130087	433.739655
7636.143484	1.471908	0.130087	1824.692627
7636.144405	1.467924	0.130087	3176.650146
7636.145314	1.432672	0.130087	4478.949219
7636.146216	0.948918	0.130087	5334.873535
7636.147170	0.102788	0.130087	5432.933594
7636.148067	0.087799	0.130087	5511.689453
7636.148964	0.087920	0.130087	5590.553711
7636.149864	0.087821	0.130087	5669.592773
7636.150798	0.088026	0.130087	5751.809082
7636.151706	0.087847	0.130087	5831.573730
7636.152599	0.087854	0.130087	5910.027344
7636.153532	0.087960	0.130087	5992.094238
7636.154447	0.087913	0.130087	6072.534180
7636.155350	0.087924	0.130087	6151.929199
7637.213176	1.018433	0.118324	491.902954
7637.214118	1.476292	0.118324	1882.569580
7637.215031	1.466415	0.118324	3221.406250
7637.215938	1.431497	0.118324	4519.773437
7637.216897	0.835382	0.118324	5320.904785
7637.217803	0.099309	0.118324	5410.878906
7637.218708	0.087810	0.118324	5490.347168
7637.219596	0.087942	0.118324	5568.439453
7637.220551	0.087920	0.118324	5652.402832
7637.221458	0.087891	0.118324	5732.119629
7637.222349	0.087770	0.118324	5810.322266
7637.223294	0.087839	0.118324	5893.330566
7637.224209	0.087887	0.118324	5973.747070
7637.225114	0.087803	0.118324	6053.208496
7637.226005	0.087817	0.118324	6131.453613
7638.214618	1.011233	0.129156	458.088470
7638.215513	1.471718	0.129156	1775.275757
7638.216452	1.468766	0.129156	3154.446777
7638.217366	1.433496	0.129156	4464.662109
7638.218291	0.934343	0.129156	5328.929687
7638.219186	0.108907	0.129156	5426.401855
7638.220121	0.087883	0.129156	5508.572754
7638.221026	0.087946	0.129156	5588.163574
7638.221928	0.087894	0.129156	5667.444336
7638.222816	0.087891	0.129156	5745.491211
7638.223761	0.088004	0.129156	5828.655273
7638.224666	0.087876	0.129156	5908.183105
7638.225560	0.087828	0.129156	5986.701660
7638.226493	0.087850	0.129156	6068.666016
7638.227385	0.087913	0.129156	6147.083984
7639.284693	1.010369	0.116853	454.665863
7639.285589	1.471996	0.116853	1773.574097
7639.286531	1.468729	0.116853	3157.117187
7639.287448	1.433221	0.116853	4471.381348
7639.288370	0.935735	0.116853	5334.128906
7639.289257	0.110164	0.116853	5431.844238
7639.290208	0.087942	0.116853	5515.477051
7639.291114	0.087869	0.116853	5595.085937
7639.292004	0.087905	0.116853	5673.321777
7639.292917	0.087902	0.116853	5753.576172
7639.293850	0.087887	0.116853	5835.574707
7639.294755	0.087891	0.116853	5915.115723
7639.295653	0.087854	0.116853	5994.008789
7639.296580	0.087982	0.116853	6075.568359
7639.297484	0.087971	0.116853	6155.094238
7640.286151	0.988784	0.127154	429.132324
7640.287090	1.470835	0.127154	1810.246338
7640.288023	1.467803	0.127154	3179.706299
7640.288933	1.432734	0.127154	4483.494629
7640.289835	0.940638	0.127154	5331.950684
7640.290773	0.104703	0.127154	5430.162598
7640.291688	0.087792	0.127154	5510.492187
7640.292607	0.087814	0.127154	5591.192871
7640.293497	0.087854	0.127154	5669.382812
7640.294440	0.087799	0.127154	5752.177246
7640.295335	0.087839	0.127154	5830.793457
7640.296223	0.087814	0.127154	5908.771973
7640.297147	0.087935	0.127154	5990.023437
7640.298063	0.087847	0.127154	6070.491211
7640.298968	0.087784	0.127154	6149.936035
7641.356283	1.025211	0.119669	497.227448
7641.357204	1.475504	0.119669	1856.166626
7641.358106	1.467931	0.119669	3180.240234
7641.358999	1.433291	0.119669	4460.168945
7641.359982	0.865704	0.119669	5311.156250
7641.360882	0.101810	0.119669	5402.785645
7641.361778	0.087689	0.119669	5481.354980
7641.362688	0.087938	0.119669	5561.378906
7641.363612	0.087836	0.119669	5642.539062
7641.364517	0.087803	0.119669	5722.000488
7641.365412	0.087854	0.119669	5800.629883
7641.366345	0.088004	0.119669	5882.737793
7641.367247	0.087814	0.119669	5961.945801
7641.368142	0.087865	0.119669	6040.584961
7641.369028	0.087825	0.119669	6118.397461
7642.357214	1.017792	0.128479	463.095245
7642.358114	1.472051	0.128479	1787.940918
7642.359006	1.469484	0.128479	3098.720215
7642.359953	1.433408	0.128479	4456.157715
7642.360883	0.936226	0.128479	5326.847656
7642.361774	0.108728	0.128479	5423.724121
7642.362697	0.087861	0.128479	5504.820312
7642.363601	0.088022	0.128479	5584.392578
7642.364506	0.087843	0.128479	5663.890625
7642.365402	0.087865	0.128479	5742.617676
7642.366357	0.087960	0.128479	5826.619629
7642.367259	0.087865	0.128479	5905.874023
7642.368156	0.087861	0.128479	5984.685547
7642.369039	0.087854	0.128479	6062.260742
7642.369969	0.087968	0.128479	6144.070312
7643.427817	1.020564	0.121422	468.438843
7643.428714	1.472597	0.121422	1789.357910
7643.429607	1.469832	0.121422	3101.917480
7643.430564	1.433178	0.121422	4473.468262
7643.431480	0.919332	0.121422	5315.576660
7643.432407	0.104652	0.121422	5412.589355
7643.433299	0.087704	0.121422	5490.821289
7643.434262	0.087898	0.121422	5575.466797
7643.435165	0.087773	0.121422	5654.726074
7643.436055	0.087865	0.121422	5732.925781
7643.436991	0.087799	0.121422	5815.105469
7643.437906	0.087836	0.121422	5895.475098
7643.438819	0.087898	0.121422	5975.726074
7643.439705	0.087737	0.121422	6053.460937
7643.440643	0.087872	0.121422	6135.885254
7644.428236	0.997683	0.129506	438.980560
7644.429185	1.471377	0.129506	1835.317383
7644.430097	1.468217	0.129506	3174.330811
7644.431010	1.432668	0.129506	4482.356934
7644.431916	0.947080	0.129506	5340.411621
7644.432854	0.106238	0.129506	5440.062500
7644.433753	0.087905	0.129506	5519.089355
7644.434656	0.087817	0.129506	5598.388672
7644.435546	0.087916	0.129506	5676.634277
7644.436488	0.087971	0.129506	5759.502930
7644.437397	0.087719	0.129506	5839.239258
7644.438296	0.087850	0.129506	5918.216797
7644.439234	0.087880	0.129506	6000.647949
7644.440136	0.087968	0.129506	6079.994629
7644.441033	0.087894	0.129506	6158.835937
7645.499405	1.064392	0.117651	540.711182
7645.500317	1.476130	0.117651	1886.942017
7645.501228	1.467001	0.117651	3223.379639
7645.502124	1.431969	0.117651	4506.423828
7645.503089	0.846621	0.117651	5323.413086
7645.503996	0.100455	0.117651	5414.525879
7645.504891	0.087737	0.117651	5493.050293
7645.505821	0.087909	0.117651	5574.805664
7645.506725	0.087905	0.117651	5654.271973
7645.507623	0.087876	0.117651	5733.184570
7645.508511	0.087887	0.117651	5811.228027
7645.509463	0.087986	0.117651	5894.990723
7645.510353	0.087876	0.117651	5973.200195
7645.511252	0.087869	0.117651	6052.194336
7645.512143	0.087858	0.117651	6130.475586
7646.500305	1.001554	0.127488	439.682220
7646.501209	1.471567	0.127488	1769.979126
7646.502103	1.470033	0.127488	3084.188477
7646.503044	1.434474	0.127488	4434.028320
7646.503963	0.971547	0.127488	5326.879883
7646.504856	0.113778	0.127488	5428.483887
7646.505740	0.087715	0.127488	5506.023926
7646.506691	0.087997	0.127488	5589.708984
7646.507592	0.087894	0.127488	5668.901855
7646.508479	0.087920	0.127488	5746.886719
7646.509400	0.087902	0.127488	5827.844238
7646.510320	0.087898	0.127488	5908.710449
7646.511228	0.087913	0.127488	5988.535156
7646.512119	0.087803	0.127488	6066.767578
7646.513059	0.088008	0.127488	6149.495117
7647.570391	1.005908	0.118360	454.670532
7647.571289	1.472007	0.118360	1776.532593
7647.572242	1.468755	0.118360	3176.255859
7647.573145	1.433284	0.118360	4470.510742
7647.574059	0.941660	0.118360	5331.187988
7647.574953	0.109622	0.118360	5429.189453
7647.575893	0.087913	0.118360	5511.827148
7647.576795	0.087927	0.118360	5591.137695
7647.577697	0.087858	0.118360	5670.385254
7647.578586	0.087960	0.118360	5748.582031
7647.579539	0.087942	0.118360	5832.390625
7647.580445	0.087894	0.118360	5912.022949
7647.581335	0.087891	0.118360	5990.245605
7647.582270	0.087924	0.118360	6072.454102
7647.583173	0.087935	0.118360	6151.858887
7648.572892	1.015056	0.128979	457.790314
7648.573853	1.475658	0.128979	1875.897583
7648.574755	1.467217	0.128979	3199.327148
7648.575684	1.431401	0.128979	4529.099121
7648.576586	0.872538	0.128979	5316.128418
7648.577543	0.099921	0.128979	5411.752441
7648.578451	0.087715	0.128979	5491.397461
7648.579350	0.087858	0.128979	5570.381348
7648.580296	0.087784	0.128979	5653.425293
7648.581198	0.087817	0.128979	5732.636719
7648.582121	0.087806	0.128979	5813.682129
7648.583018	0.087916	0.128979	5892.542969
7648.583961	0.087850	0.128979	5975.385742
7648.584888	0.087744	0.128979	6056.724609
7648.585776	0.087843	0.128979	6134.729004
7649.641432	1.002612	0.118578	447.165100
7649.642387	1.474962	0.118578	1855.753906
7649.643297	1.467598	0.118578	3191.267822
7649.644202	1.433331	0.118578	4488.432617
7649.645099	0.923624	0.118578	5316.923828
7649.646049	0.103883	0.118578	5415.612793
7649.646953	0.087744	0.118578	5494.933594
7649.647850	0.087990	0.118578	5573.860352
7649.648780	0.087979	0.118578	5655.680176
7649.649685	0.087913	0.118578	5735.241211
7649.650590	0.087729	0.118578	5814.636230
7649.651482	0.087887	0.118578	5893.031250
7649.652436	0.087924	0.118578	5976.910156
7649.653332	0.087843	0.118578	6055.617676
7649.654233	0.087960	0.118578	6134.869629
7650.644425	0.990842	0.129220	432.998077
7650.645402	1.472256	0.129220	1871.391968
7650.646315	1.467286	0.129220	3211.024414
7650.647213	1.432493	0.129220	4497.402832
7650.648114	0.929971	0.129220	5335.306641
7650.649057	0.102546	0.129220	5432.007812
7650.649959	0.087821	0.129220	5511.222168
7650.650855	0.087883	0.129220	5589.965820
7650.651759	0.087883	0.129220	5669.412109
7650.652699	0.087990	0.129220	5752.122070
7650.653613	0.087905	0.129220	5832.467285
7650.654507	0.087795	0.129220	5910.956543
7650.655448	0.087979	0.129220	5993.744141
7650.656346	0.087913	0.129220	6072.689453
7650.657250	0.087825	0.129220	6152.083008
7651.712993	1.015419	0.118465	457.953796
7651.713897	1.472325	0.118465	1788.936035
7651.714789	1.469334	0.118465	3099.581543
7651.715736	1.433763	0.118465	4457.355469
7651.716675	0.922808	0.118465	5323.871582
7651.717581	0.106194	0.118465	5420.083008
7651.718471	0.087729	0.118465	5498.162109
7651.719422	0.087894	0.118465	5581.749512
7651.720326	0.087740	0.118465	5661.066895
7651.721215	0.087847	0.118465	5739.162598
7651.722119	0.087847	0.118465	5818.576172
7651.723050	0.087847	0.118465	5900.361328
7651.723952	0.087792	0.118465	5979.549316
7651.724840	0.087836	0.118465	6057.547363
7651.725773	0.087968	0.118465	6139.621094
7652.715980	1.000071	0.128068	436.030884
7652.716887	1.471736	0.128068	1770.895264
7652.717784	1.469762	0.128068	3089.271729
7652.718731	1.434027	0.128068	4447.295410
7652.719661	0.941536	0.128068	5322.923828
7652.720568	0.107655	0.128068	5420.566895
7652.721454	0.087799	0.128068	5498.356934
7652.722407	0.087975	0.128068	5582.196777
7652.723312	0.087810	0.128068	5661.665039
7652.724201	0.087872	0.128068	5739.783691
7652.725126	0.087913	0.128068	5821.103027
7652.726033	0.087931	0.128068	5900.856445
7652.726936	0.087832	0.128068	5980.168945
7652.727828	0.087766	0.128068	6058.456543
7652.728770	0.087913	0.128068	6141.270020
7653.784013	1.001770	0.118884	440.778809
7653.784961	1.471454	0.118884	1835.717041
7653.785876	1.467883	0.118884	3178.830078
7653.786782	1.433152	0.118884	4477.265625
7653.787681	0.955239	0.118884	5336.025879
7653.788619	0.105850	0.118884	5435.312988
7653.789521	0.087916	0.118884	5514.613281
7653.790426	0.087836	0.118884	5594.104492
7653.791316	0.087894	0.118884	5672.330566
7653.792265	0.087960	0.118884	5755.804687
7653.793166	0.087784	0.118884	5834.898437
7653.794060	0.087872	0.118884	5913.456055
7653.795000	0.087920	0.118884	5996.100586
7653.795900	0.087847	0.118884	6075.162598
7653.796791	0.087953	0.118884	6153.528809
7654.788082	1.011101	0.127094	485.328552
7654.789013	1.475189	0.127094	1858.729736
7654.789936	1.466990	0.127094	3212.761230
7654.790832	1.432170	0.127094	4495.985840
7654.791776	0.870579	0.127094	5317.812012
7654.792680	0.102074	0.127094	5410.086914
7654.793583	0.087744	0.127094	5489.319824
7654.794470	0.087744	0.127094	5567.148926
7654.795427	0.087920	0.127094	5651.288086
7654.796328	0.087902	0.127094	5730.487305
7654.797224	0.087854	0.127094	5809.204590
7654.798146	0.087828	0.127094	5890.182129
7654.799046	0.087825	0.127094	5969.224609
7654.799952	0.087847	0.127094	6048.813477
7654.800842	0.087781	0.127094	6126.938477
7655.855593	1.019894	0.118316	466.091461
7655.856516	1.473464	0.118316	1826.098999
7655.857416	1.468444	0.118316	3147.698242
7655.858358	1.432507	0.118316	4497.120117
7655.859284	0.895902	0.118316	5326.725586
7655.860191	0.103802	0.118316	5420.874512
7655.861078	0.087726	0.118316	5498.687500
7655.862027	0.087803	0.118316	5582.012207
7655.862929	0.087656	0.118316	5661.078125
7655.863824	0.087861	0.118316	5739.713867
7655.864756	0.087872	0.118316	5821.610840
7655.865658	0.087993	0.118316	5900.980469
7655.866558	0.087751	0.118316	5979.957031
7655.867442	0.087902	0.118316	6057.662109
7655.868381	0.087916	0.118316	6140.215332
7656.859635	1.048964	0.130010	498.257751
7656.860549	1.474526	0.130010	1845.974854
7656.861481	1.467165	0.130010	3213.373047
7656.862374	1.432302	0.130010	4492.418945
7656.863341	0.849016	0.130010	5313.417480
7656.864270	0.098719	0.130010	5405.127930
7656.865158	0.087821	0.130010	5483.112793
7656.866094	0.087799	0.130010	5565.292969
7656.866999	0.087792	0.130010	5644.744629
7656.867921	0.087938	0.130010	5725.823730
7656.868811	0.087861	0.130010	5804.020508
7656.869752	0.087836	0.130010	5886.673828
7656.870677	0.087927	0.130010	5968.006348
7656.871594	0.087883	0.130010	6048.595215
7656.872487	0.087803	0.130010	6127.002930
7657.926107	1.015485	0.119142	456.968109
7657.927009	1.472355	0.119142	1785.031982
7657.927953	1.468542	0.119142	3171.335937
7657.928876	1.432753	0.119142	4493.766602
7657.929788	0.923606	0.119142	5336.095215
7657.930679	0.108025	0.119142	5432.345215
7657.931625	0.087828	0.119142	5515.430664
7657.932530	0.087817	0.119142	5594.905273
7657.933426	0.087748	0.119142	5673.527344
7657.934313	0.087832	0.119142	5751.434570
7657.935249	0.087957	0.119142	5833.761719
7657.936157	0.087645	0.119142	5913.343750
7657.937056	0.087847	0.119142	5992.317871
7657.937991	0.087858	0.119142	6074.464844
7657.938898	0.087883	0.119142	6154.174805
7658.931194	1.026757	0.128902	499.003662
7658.932118	1.475647	0.128902	1862.501465
7658.933036	1.467059	0.128902	3209.261719
7658.933930	1.432200	0.128902	4489.648437
7658.934900	0.847434	0.128902	5311.659668
7658.935800	0.100865	0.128902	5402.438477
7658.936698	0.087887	0.128902	5481.360840
7658.937601	0.087865	0.128902	5560.703125
7658.938520	0.087920	0.128902	5641.501465
7658.939429	0.087832	0.128902	5721.340820
7658.940326	0.087861	0.128902	5800.152344
7658.941258	0.087880	0.128902	5882.056152
7658.942166	0.087894	0.128902	5961.864258
7658.943066	0.087894	0.128902	6040.969238
7658.943955	0.087920	0.128902	6119.129883
7659.997638	0.992717	0.119351	431.832031
7659.998615	1.476028	0.119351	1873.911255
7659.999525	1.467382	0.119351	3209.228516
7660.000419	1.432914	0.119351	4490.253418
7660.001352	0.909122	0.119351	5338.464355
7660.002255	0.105011	0.119351	5433.289062
7660.003154	0.087726	0.119351	5512.154785
7660.004040	0.087817	0.119351	5589.960937
7660.004969	0.087913	0.119351	5671.631836
7660.005881	0.087858	0.119351	5751.757812
7660.006783	0.087781	0.119351	5830.936035
7660.007671	0.087927	0.119351	5909.015625
7660.008618	0.087949	0.119351	5992.303711
7660.009520	0.088008	0.119351	6071.686523
7660.010408	0.087924	0.119351	6149.762695
7661.002714	1.009109	0.128250	450.062561
7661.003616	1.471805	0.128250	1777.631104
7661.004581	1.467616	0.128250	3193.880371
7661.005499	1.432119	0.128250	4508.565430
7661.006407	0.916736	0.128250	5340.961426
7661.007290	0.107721	0.128250	5436.079102
7661.008227	0.087795	0.128250	5518.343262
7661.009139	0.087814	0.128250	5598.429199
7661.010032	0.087876	0.128250	5676.902344
7661.010961	0.087916	0.128250	5758.576660
7661.011868	0.087924	0.128250	5838.323242
7661.012767	0.087836	0.128250	5917.287598
7661.013655	0.087847	0.128250	5995.295410
7661.014601	0.087898	0.128250	6078.446777
7661.015511	0.087949	0.128250	6158.480469
7662.069234	1.039065	0.119802	485.243286
7662.070138	1.473380	0.119802	1817.178833
7662.071033	1.469290	0.119802	3132.192871
7662.071968	1.433639	0.119802	4472.645508
7662.072892	0.913037	0.119802	5316.291992
7662.073813	0.104597	0.119802	5412.625977
7662.074706	0.087887	0.119802	5491.108887
7662.075663	0.087817	0.119802	5575.149902
7662.076569	0.087869	0.119802	5654.758789
7662.077497	0.087836	0.119802	5736.270508
7662.078386	0.087803	0.119802	5814.327148
7662.079337	0.087913	0.119802	5897.932129
7662.080256	0.087854	0.119802	5978.669922
7662.081144	0.087872	0.119802	6056.700684
7662.082081	0.087858	0.119802	6139.023437
7663.074315	1.066322	0.128459	536.359924
7663.075232	1.475760	0.128459	1889.632324
7663.076142	1.467100	0.128459	3224.692871
7663.077035	1.432020	0.128459	4503.486816
7663.077983	0.878672	0.128459	5336.467773
7663.078887	0.102993	0.128459	5429.573730
7663.079781	0.087682	0.128459	5507.961426
7663.080714	0.087953	0.128459	5590.021484
7663.081620	0.087949	0.128459	5669.703613
7663.082527	0.087905	0.128459	5749.433594
7663.083414	0.087916	0.128459	5827.415527
7663.084362	0.087975	0.128459	5910.815918
7663.085264	0.087982	0.128459	5990.175781
7663.086168	0.087806	0.128459	6069.552734
7663.087054	0.087887	0.128459	6147.420410
7664.140820	1.057467	0.118372	541.423096
7664.141739	1.476057	0.118372	1897.919678
7664.142644	1.466708	0.118372	3225.290039
7664.143541	1.431497	0.118372	4509.342773
7664.144499	0.850012	0.118372	5323.654297
7664.145405	0.100521	0.118372	5414.726562
7664.146302	0.087836	0.118372	5493.515137
7664.147231	0.088022	0.118372	5575.288086
7664.148137	0.087920	0.118372	5654.943359
7664.149043	0.087817	0.118372	5734.505859
7664.149933	0.087854	0.118372	5812.695801
7664.150876	0.087905	0.118372	5895.590332
7664.151778	0.087916	0.118372	5974.890625
7664.152673	0.087792	0.118372	6053.464355
7664.153561	0.087806	0.118372	6131.436523
7665.145813	1.000953	0.128459	443.422333
7665.146715	1.471512	0.128459	1770.726562
7665.147610	1.469136	0.128459	3085.603027
7665.148588	1.432544	0.128459	4486.630859
7665.149503	0.924580	0.128459	5332.621582
7665.150390	0.108021	0.128459	5428.436523
7665.151327	0.087792	0.128459	5510.697266
7665.152228	0.087814	0.128459	5589.817383
7665.153128	0.087755	0.128459	5668.796875
7665.154016	0.087865	0.128459	5746.820801
7665.154963	0.087869	0.128459	5830.032227
7665.155865	0.087828	0.128459	5909.253418
7665.156781	0.087894	0.128459	5989.764648
7665.157674	0.087858	0.128459	6068.221680
7665.158628	0.087806	0.128459	6151.988770
7666.211804	1.013130	0.119274	457.934692
7666.212703	1.472139	0.119274	1781.387451
7666.213632	1.468986	0.119274	3146.075195
7666.214545	1.433881	0.119274	4455.208008
7666.215475	0.944465	0.119274	5333.560547
7666.216362	0.110581	0.119274	5431.645996
7666.217294	0.087817	0.119274	5513.491699
7666.218198	0.087909	0.119274	5592.961426
7666.219092	0.087909	0.119274	5671.552246
7666.219981	0.087916	0.119274	5749.709961
7666.220932	0.087909	0.119274	5833.311523
7666.221837	0.087854	0.119274	5912.819336
7666.222736	0.087828	0.119274	5991.776855
7666.223664	0.087847	0.119274	6073.298340
7666.224564	0.087957	0.119274	6152.458984
7667.216899	1.014521	0.128677	502.188141
7667.217808	1.475079	0.128677	1843.035278
7667.218728	1.467448	0.128677	3193.086914
7667.219624	1.432346	0.128677	4476.469238
7667.220585	0.861335	0.128677	5304.212402
7667.221488	0.101572	0.128677	5395.932129
7667.222384	0.087777	0.128677	5474.580566
7667.223271	0.087935	0.128677	5552.578613
7667.224224	0.088052	0.128677	5636.491699
7667.225129	0.087832	0.128677	5715.979492
7667.226024	0.087894	0.128677	5794.645020
7667.226958	0.087894	0.128677	5876.738281
7667.227860	0.087964	0.128677	5956.081543
7667.228757	0.087953	0.128677	6034.975098
7667.229642	0.087968	0.128677	6112.826172
7668.284409	1.050245	0.118948	506.218231
7668.285312	1.474142	0.118948	1837.368286
7668.286234	1.467656	0.118948	3190.547363
7668.287140	1.432167	0.118948	4488.090332
7668.288094	0.872512	0.118948	5320.466797
7668.288998	0.102312	0.118948	5412.957031
7668.289892	0.087828	0.118948	5491.475586
7668.290832	0.088030	0.118948	5574.223633
7668.291748	0.087817	0.118948	5654.664551
7668.292652	0.087850	0.118948	5734.081055
7668.293539	0.087843	0.118948	5811.998047
7668.294483	0.087935	0.118948	5895.008301
7668.295382	0.087916	0.118948	5974.044922
7668.296270	0.087887	0.118948	6052.088379
7668.297190	0.087960	0.118948	6133.011719
7669.288406	1.009116	0.128354	455.111389
7669.289302	1.471754	0.128354	1773.802979
7669.290252	1.468147	0.128354	3168.542480
7669.291163	1.432844	0.128354	4473.863281
7669.292076	0.942371	0.128354	5334.247559
7669.292962	0.110413	0.128354	5432.073242
7669.293921	0.087898	0.128354	5516.367187
7669.294822	0.087839	0.128354	5595.510254
7669.295714	0.087887	0.128354	5673.905273
7669.296634	0.087942	0.128354	5754.812012
7669.297542	0.087960	0.128354	5834.679687
7669.298439	0.087832	0.128354	5913.464844
7669.299338	0.087843	0.128354	5992.435547
7669.300263	0.087905	0.128354	6073.748047
7669.301173	0.087832	0.128354	6153.675293
7670.355422	1.011193	0.118276	455.036652
7670.356316	1.471285	0.118276	1770.365723
7670.357276	1.467894	0.118276	3179.544434
7670.358195	1.432870	0.118276	4496.352051
7670.359097	0.935753	0.118276	5340.401367
7670.360035	0.108175	0.118276	5441.869629
7670.360936	0.087777	0.118276	5520.957031
7670.361838	0.087832	0.118276	5600.181641
7670.362727	0.087832	0.118276	5678.264160
7670.363671	0.087883	0.118276	5761.226074
7670.364573	0.087916	0.118276	5840.526367
7670.365477	0.087920	0.118276	5920.005859
7670.366361	0.087957	0.118276	5997.759277
7670.367301	0.087982	0.118276	6080.462402
7670.368208	0.087986	0.118276	6160.265625
7671.360007	1.041775	0.128459	517.762085
7671.360931	1.476031	0.128459	1881.615112
7671.361838	1.467026	0.128459	3212.208008
7671.362737	1.432039	0.128459	4499.610840
7671.363716	0.831097	0.128459	5313.255371
7671.364613	0.099990	0.128459	5402.946777
7671.365507	0.087806	0.128459	5481.445801
7671.366422	0.087942	0.128459	5561.912598
7671.367339	0.087986	0.128459	5642.595703
7671.368240	0.087876	0.128459	5721.771973
7671.369133	0.087854	0.128459	5800.225586
7671.370064	0.087942	0.128459	5882.099609
7671.370974	0.087858	0.128459	5962.050293
7671.371882	0.087938	0.128459	6041.898437
7671.372773	0.087766	0.128459	6120.098145
7672.426980	1.014606	0.118618	457.587189
7672.427906	1.472944	0.118618	1821.533691
7672.428801	1.468656	0.118618	3135.980713
7672.429741	1.433317	0.118618	4483.298340
7672.430660	0.923621	0.118618	5332.105469
7672.431565	0.106802	0.118618	5428.761230
7672.432451	0.087744	0.118618	5506.502441
7672.433388	0.087993	0.118618	5588.952148
7672.434293	0.087865	0.118618	5668.469727
7672.435206	0.087938	0.118618	5748.757324
7672.436098	0.087887	0.118618	5827.152344
7672.437037	0.087990	0.118618	5909.774414
7672.437946	0.087828	0.118618	5989.610352
7672.438836	0.087850	0.118618	6067.797363
7672.439760	0.087869	0.118618	6148.987793
7673.431524	1.009182	0.128048	458.168732
7673.432423	1.472245	0.128048	1781.716797
7673.433318	1.469407	0.128048	3096.835937
7673.434294	1.432306	0.128048	4494.766602
7673.435206	0.897433	0.128048	5313.225586
7673.436136	0.103103	0.128048	5409.111328
7673.437020	0.087854	0.128048	5486.774414
7673.437972	0.087821	0.128048	5570.379883
7673.438873	0.087938	0.128048	5649.612305
7673.439761	0.087861	0.128048	5727.633301
7673.440694	0.087916	0.128048	5809.659180
7673.441603	0.087869	0.128048	5889.531738
7673.442524	0.087847	0.128048	5970.438477
7673.443418	0.087817	0.128048	6048.947266
7673.444380	0.087821	0.128048	6133.431152
7674.498012	1.015525	0.120104	456.986176
7674.498916	1.472347	0.120104	1787.988281
7674.499876	1.467546	0.120104	3196.832764
7674.500795	1.432244	0.120104	4513.064453
7674.501702	0.917043	0.120104	5344.822754
7674.502585	0.107736	0.120104	5439.953125
7674.503528	0.087825	0.120104	5522.771973
7674.504443	0.087843	0.120104	5603.148437
7674.505342	0.087865	0.120104	5682.139160
7674.506273	0.087902	0.120104	5763.975586
7674.507181	0.088008	0.120104	5843.886719
7674.508080	0.087891	0.120104	5922.900391
7674.508965	0.087781	0.120104	6000.586426
7674.509905	0.087979	0.120104	6083.286133
7674.510807	0.087913	0.120104	6162.583496
7675.503123	1.078975	0.129164	549.198059
7675.504032	1.475980	0.129164	1890.864014
7675.504936	1.466975	0.129164	3217.009521
7675.505829	1.432050	0.129164	4495.830078
7675.506793	0.863965	0.129164	5328.692383
7675.507696	0.101876	0.129164	5420.686523
7675.508590	0.087700	0.129164	5499.090332
7675.509528	0.087836	0.129164	5581.479980
7675.510431	0.087854	0.129164	5660.812012
7675.511335	0.087894	0.129164	5740.268555
7675.512225	0.087832	0.129164	5818.438965
7675.513170	0.087891	0.129164	5901.495605
7675.514072	0.087949	0.129164	5980.825684
7675.514970	0.087788	0.129164	6059.659180
7675.515857	0.087891	0.129164	6137.618164
7676.570114	1.060748	0.119706	518.705933
7676.571036	1.475391	0.119706	1879.016113
7676.571946	1.466957	0.119706	3213.946777
7676.572843	1.431779	0.119706	4498.251953
7676.573810	0.852792	0.119706	5322.901367
7676.574711	0.101396	0.119706	5414.259766
7676.575598	0.087737	0.119706	5492.082520
7676.576550	0.087920	0.119706	5575.782227
7676.577452	0.087902	0.119706	5655.069336
7676.578350	0.087861	0.119706	5733.968750
7676.579238	0.087817	0.119706	5811.950684
7676.580165	0.087905	0.119706	5893.438965
7676.581071	0.087850	0.119706	5973.031250
7676.581973	0.087828	0.119706	6052.252441
7676.582856	0.087902	0.119706	6129.869629
7677.575114	0.989487	0.128503	429.437469
7677.576059	1.472018	0.128503	1820.494263
7677.576972	1.468367	0.128503	3161.113281
7677.577876	1.433873	0.128503	4457.334961
7677.578779	0.963076	0.128503	5326.992676
7677.579727	0.106216	0.128503	5427.685059
7677.580627	0.087686	0.128503	5506.602051
7677.581522	0.087953	0.128503	5585.319824
7677.582441	0.087869	0.128503	5666.071289
7677.583360	0.087993	0.128503	5746.937012
7677.584276	0.087861	0.128503	5827.417969
7677.585169	0.087894	0.128503	5905.907715
7677.586099	0.087953	0.128503	5987.704102
7677.587004	0.087949	0.128503	6067.298340
7677.587903	0.087964	0.128503	6146.377930
7678.640636	1.039351	0.119593	510.321167
7678.641549	1.474468	0.119593	1856.510254
7678.642479	1.466847	0.119593	3220.677734
7678.643376	1.431925	0.119593	4505.114258
7678.644347	0.838590	0.119593	5319.385254
7678.645265	0.098386	0.119593	5409.703613
7678.646153	0.087821	0.119593	5487.688477
7678.647094	0.087909	0.119593	5570.410645
7678.648010	0.087832	0.119593	5650.864746
7678.648920	0.087909	0.119593	5730.861816
7678.649807	0.087880	0.119593	5808.811035
7678.650766	0.087821	0.119593	5893.031250
7678.651670	0.087839	0.119593	5972.437988
7678.652588	0.087836	0.119593	6053.071289
7678.653474	0.087964	0.119593	6131.007324
7679.646168	1.009504	0.128427	449.229431
7679.647080	1.472131	0.128427	1791.813232
7679.647982	1.469440	0.128427	3117.248047
7679.648900	1.434192	0.128427	4433.836426
7679.649843	0.941224	0.128427	5321.411133
7679.650755	0.107988	0.128427	5419.896484
7679.651649	0.087814	0.128427	5498.401855
7679.652586	0.087942	0.128427	5580.803223
7679.653491	0.087946	0.128427	5660.394043
7679.654387	0.087898	0.128427	5739.150391
7679.655276	0.087839	0.128427	5817.239746
7679.656208	0.087891	0.128427	5899.153809
7679.657125	0.087894	0.128427	5979.752930
7679.658017	0.087964	0.128427	6058.216797
7679.658935	0.087975	0.128427	6138.977539
7680.712672	1.021802	0.120088	458.789032
7680.713587	1.473124	0.120088	1806.697388
7680.714497	1.468630	0.120088	3143.151123
7680.715398	1.433401	0.120088	4434.645508
7680.716348	0.935537	0.120088	5323.405762
7680.717259	0.107673	0.120088	5421.496094
7680.718148	0.087733	0.120088	5499.490723
7680.719088	0.088022	0.120088	5582.231934
7680.719989	0.087854	0.120088	5661.388184
7680.720887	0.087810	0.120088	5740.241699
7680.721775	0.087887	0.120088	5818.285156
7680.722719	0.087909	0.120088	5901.270996
7680.723626	0.087828	0.120088	5980.931152
7680.724525	0.087832	0.120088	6059.892090
7680.725432	0.087821	0.120088	6139.545898
7681.717719	1.007278	0.129116	450.253204
7681.718615	1.471652	0.129116	1768.853027
7681.719576	1.467997	0.129116	3179.598145
7681.720495	1.432760	0.129116	4496.304687
7681.721401	0.932018	0.129116	5340.712891
7681.722285	0.109545	0.129116	5437.550293
7681.723228	0.087847	0.129116	5520.389648
7681.724127	0.087803	0.129116	5599.324219
7681.725018	0.087887	0.129116	5677.631348
7681.725958	0.087960	0.129116	5760.313965
7681.726878	0.087854	0.129116	5841.139648
7681.727773	0.087792	0.129116	5919.713379
7681.728663	0.087806	0.129116	5997.860840
7681.729630	0.087880	0.129116	6082.840332
7681.730538	0.087894	0.129116	6162.648437
7682.784199	0.993245	0.120036	435.041168
7682.785094	1.470509	0.120036	1751.146729
7682.786088	1.467107	0.120036	3209.451172
7682.787006	1.431808	0.120036	4523.850586
7682.787911	0.907844	0.120036	5345.449707
7682.788854	0.105165	0.120036	5444.620117
7682.789743	0.087744	0.120036	5522.624512
7682.790644	0.087806	0.120036	5601.738281
7682.791531	0.087810	0.120036	5679.625977
7682.792467	0.088000	0.120036	5761.994629
7682.793372	0.087909	0.120036	5841.552246
7682.794279	0.087898	0.120036	5921.275879
7682.795169	0.087788	0.120036	5999.407227
7682.796118	0.087858	0.120036	6082.784180
7682.797026	0.087660	0.120036	6162.379395
7683.788740	0.991813	0.127488	432.430328
7683.789637	1.470520	0.127488	1751.486694
7683.790610	1.467323	0.127488	3179.191895
7683.791544	1.431797	0.127488	4516.490234
7683.792442	0.916110	0.127488	5339.156738
7683.793381	0.106527	0.127488	5439.185547
7683.794301	0.087634	0.127488	5519.809082
7683.795222	0.087828	0.127488	5600.699219
7683.796110	0.087876	0.127488	5678.732910
7683.797057	0.087898	0.127488	5761.972168
7683.797954	0.087766	0.127488	5840.698242
7683.798844	0.087913	0.127488	5918.940430
7683.799752	0.087762	0.127488	5998.628906
7683.800699	0.087689	0.127488	6081.670410
7683.801617	0.087711	0.127488	6162.189453
7684.855784	1.020238	0.120527	464.208313
7684.856704	1.473087	0.120527	1819.448486
7684.857601	1.468568	0.120527	3136.753906
7684.858548	1.433335	0.120527	4494.122070
7684.859465	0.916849	0.120527	5334.873047
7684.860367	0.106549	0.120527	5430.980469
7684.861256	0.087729	0.120527	5508.972168
7684.862202	0.087946	0.120527	5592.168457
7684.863106	0.087920	0.120527	5671.647949
7684.864007	0.087880	0.120527	5750.827637
7684.864893	0.087905	0.120527	5828.711914
7684.865846	0.088008	0.120527	5912.583496
7684.866749	0.087729	0.120527	5991.803223
7684.867643	0.087876	0.120527	6070.364258
7684.868578	0.087883	0.120527	6152.535156
7685.860300	0.992845	0.126807	434.866302
7685.861197	1.470729	0.126807	1754.109985
7685.862169	1.467627	0.126807	3180.643311
7685.863077	1.432683	0.126807	4481.519531
7685.863987	0.937544	0.126807	5334.684570
7685.864878	0.109775	0.126807	5432.494629
7685.865821	0.087744	0.126807	5515.237305
7685.866722	0.087810	0.126807	5594.354004
7685.867623	0.087792	0.126807	5673.454590
7685.868548	0.087825	0.126807	5754.692383
7685.869451	0.087894	0.126807	5834.061035
7685.870352	0.087828	0.126807	5913.194336
7685.871238	0.087788	0.126807	5990.974609
7685.872186	0.088066	0.126807	6074.461426
7685.873097	0.087788	0.126807	6154.436523
7686.927821	0.993303	0.119347	435.066803
7686.928715	1.470461	0.119347	1749.659302
7686.929699	1.467543	0.119347	3193.721436
7686.930616	1.432053	0.119347	4506.914062
7686.931519	0.919446	0.119347	5337.173828
7686.932455	0.107227	0.119347	5437.538086
7686.933375	0.087682	0.119347	5518.205566
7686.934273	0.087719	0.119347	5596.976562
7686.935161	0.087898	0.119347	5675.029785
7686.936093	0.087887	0.119347	5756.940430
7686.936994	0.087792	0.119347	5836.041016
7686.937884	0.087825	0.119347	5914.205078
7686.938812	0.087960	0.119347	5995.832031
7686.939716	0.087949	0.119347	6075.337891
7686.940615	0.087715	0.119347	6154.193359
7687.931340	1.015507	0.127948	447.838379
7687.932318	1.475980	0.127948	1891.346924
7687.933233	1.466733	0.127948	3233.408203
7687.934135	1.431775	0.127948	4524.869141
7687.935084	0.861833	0.127948	5342.749023
7687.935985	0.101400	0.127948	5434.110352
7687.936886	0.087821	0.127948	5513.237305
7687.937777	0.087960	0.127948	5591.609863
7687.938724	0.088026	0.127948	5674.970703
7687.939621	0.087931	0.127948	5753.844727
7687.940514	0.087909	0.127948	5832.347168
7687.941427	0.087938	0.127948	5912.634766
7687.942345	0.088066	0.127948	5993.479492
7687.943253	0.087931	0.127948	6073.320801
7687.944151	0.087924	0.127948	6152.276367
7688.998866	1.000148	0.119907	440.065002
7688.999782	1.471838	0.119907	1788.269043
7689.000692	1.468722	0.119907	3124.806152
7689.001629	1.433383	0.119907	4467.885742
7689.002563	0.918120	0.119907	5325.410156
7689.003462	0.106523	0.119907	5421.174805
7689.004350	0.087766	0.119907	5499.111328
7689.005300	0.087968	0.119907	5582.680664
7689.006206	0.087858	0.119907	5662.279785
7689.007092	0.087799	0.119907	5740.069824
7689.008021	0.087847	0.119907	5821.679199
7689.008931	0.087843	0.119907	5901.616211
7689.009840	0.087817	0.119907	5981.442383
7689.010738	0.087872	0.119907	6060.351562
7689.011670	0.087880	0.119907	6142.255371
7690.002911	1.016188	0.129647	465.414001
7690.003809	1.472274	0.129647	1787.516113
7690.004702	1.469246	0.129647	3099.552246
7690.005678	1.432280	0.129647	4497.458008
7690.006594	0.914374	0.129647	5335.024414
7690.007484	0.107076	0.129647	5430.322266
7690.008421	0.087770	0.129647	5512.562500
7690.009331	0.087814	0.129647	5592.473145
7690.010225	0.087876	0.129647	5671.034180
7690.011117	0.087821	0.129647	5749.370605
7690.012056	0.087894	0.129647	5831.903320
7690.012969	0.087821	0.129647	5912.083984
7690.013866	0.087850	0.129647	5990.885742
7690.014756	0.087865	0.129647	6069.085449
7690.015719	0.087942	0.129647	6153.773437
7691.070410	0.991018	0.120676	430.101837
7691.071363	1.472051	0.120676	1832.966187
7691.072284	1.467422	0.120676	3184.461670
7691.073193	1.432496	0.120676	4486.600586
7691.074096	0.943773	0.120676	5338.827637
7691.075033	0.104703	0.120676	5436.934570
7691.075941	0.087704	0.120676	5516.569824
7691.076837	0.087839	0.120676	5595.273926
7691.077752	0.087905	0.120676	5675.707031
7691.078670	0.087949	0.120676	5756.444336
7691.079576	0.087766	0.120676	5835.960449
7691.080470	0.087814	0.120676	5914.465820
7691.081401	0.088000	0.120676	5996.394043
7691.082310	0.087869	0.120676	6076.266602
7691.083216	0.087814	0.120676	6155.825684
7692.073929	0.990168	0.129366	431.713409
7692.074867	1.473545	0.129366	1813.898560
7692.075783	1.468140	0.129366	3158.714355
7692.076698	1.433273	0.129366	4470.159180
7692.077615	0.917834	0.129366	5311.813477
7692.078573	0.101580	0.129366	5409.126953
7692.079486	0.087737	0.129366	5489.230469
7692.080384	0.087869	0.129366	5568.136719
7692.081334	0.087975	0.129366	5651.712891
7692.082243	0.087942	0.129366	5731.651855
7692.083148	0.087832	0.129366	5811.139648
7692.084032	0.087865	0.129366	5888.812500
7692.084972	0.087986	0.129366	5971.519043
7692.085885	0.087894	0.129366	6051.766602
7692.086776	0.087821	0.129366	6130.015137
7693.141984	1.022065	0.120125	462.995636
7693.142886	1.472201	0.120125	1790.920776
7693.143783	1.469092	0.120125	3108.696045
7693.144756	1.432229	0.120125	4502.254883
7693.145673	0.909873	0.120125	5336.608398
7693.146568	0.106003	0.120125	5431.481445
7693.147458	0.087770	0.120125	5509.596680
7693.148408	0.087993	0.120125	5593.190430
7693.149320	0.087898	0.120125	5673.353516
7693.150218	0.087817	0.120125	5752.213379
7693.151154	0.087931	0.120125	5834.516602
7693.152060	0.087964	0.120125	5914.211914
7693.152963	0.087828	0.120125	5993.520996
7693.153850	0.087865	0.120125	6071.457031
7693.154790	0.087880	0.120125	6154.063965
7694.145482	0.998144	0.127593	440.181702
7694.146381	1.471047	0.127593	1762.653320
7694.147275	1.469575	0.127593	3076.453613
7694.148235	1.433566	0.127593	4452.676758
7694.149153	0.956979	0.127593	5331.183105
7694.150043	0.111991	0.127593	5430.854980
7694.150984	0.087759	0.127593	5513.436035
7694.151879	0.087869	0.127593	5592.078613
7694.152775	0.087817	0.127593	5670.763184
7694.153666	0.087806	0.127593	5748.998535
7694.154600	0.087909	0.127593	5831.105469
7694.155499	0.087880	0.127593	5910.109375
7694.156403	0.087781	0.127593	5989.463379
7694.157290	0.087847	0.127593	6067.383301
7694.158243	0.087946	0.127593	6151.195312
7695.213522	0.998745	0.119722	444.441559
7695.214419	1.471040	0.119722	1763.964478
7695.215382	1.467213	0.119722	3176.890625
7695.216304	1.431848	0.119722	4497.054687
7695.217230	0.898799	0.119722	5329.342285
7695.218123	0.104945	0.119722	5423.058105
7695.219094	0.087675	0.119722	5508.189941
7695.219995	0.087806	0.119722	5587.303711
7695.220885	0.087810	0.119722	5665.454590
7695.221812	0.087971	0.119722	5747.003906
7695.222730	0.087814	0.119722	5827.616699
7695.223645	0.087817	0.119722	5907.969727
7695.224534	0.087872	0.119722	5986.088379
7695.225461	0.087887	0.119722	6067.559570
7695.226365	0.087839	0.119722	6146.966309
7696.217044	1.001027	0.129772	439.450684
7696.218004	1.474947	0.129772	1855.400269
7696.218922	1.467524	0.129772	3202.587646
7696.219822	1.432665	0.129772	4491.986328
7696.220782	0.878119	0.129772	5334.980469
7696.221683	0.103092	0.129772	5427.866211
7696.222576	0.087751	0.129772	5506.228027
7696.223466	0.087960	0.129772	5584.512695
7696.224394	0.087887	0.129772	5666.071777
7696.225301	0.087931	0.129772	5745.825195
7696.226208	0.087876	0.129772	5825.528809
7696.227093	0.087810	0.129772	5903.240723
7696.228041	0.087964	0.129772	5986.630371
7696.228951	0.087806	0.129772	6066.534180
7696.229841	0.087869	0.129772	6144.737305
7697.284578	1.013584	0.120854	455.099213
7697.285504	1.472970	0.120854	1819.069336
7697.286400	1.468883	0.120854	3135.188477
7697.287347	1.432987	0.120854	4492.227051
7697.288267	0.914337	0.120854	5333.417480
7697.289167	0.106432	0.120854	5429.206055
7697.290057	0.087689	0.120854	5507.249512
7697.290984	0.087946	0.120854	5588.774902
7697.291888	0.087979	0.120854	5668.307617
7697.292792	0.087814	0.120854	5747.691406
7697.293674	0.087751	0.120854	5825.088379
7697.294618	0.087916	0.120854	5908.081543
7697.295524	0.087821	0.120854	5987.647461
7697.296414	0.087788	0.120854	6065.778809
7697.297354	0.087938	0.120854	6148.440918
7698.289104	0.993761	0.128636	438.248566
7698.290017	1.471707	0.128636	1781.916626
7698.290915	1.469007	0.128636	3101.085449
7698.291890	1.432372	0.128636	4497.647949
7698.292809	0.909082	0.128636	5333.094238
7698.293698	0.106366	0.128636	5427.653809
7698.294620	0.087880	0.128636	5508.678711
7698.295543	0.087770	0.128636	5589.690430
7698.296436	0.087982	0.128636	5668.258301
7698.297320	0.087993	0.128636	5746.044434
7698.298250	0.087982	0.128636	5827.867676
7698.299158	0.087810	0.128636	5907.599121
7698.300070	0.087770	0.128636	5987.645020
7698.300958	0.087858	0.128636	6065.662598
7698.301903	0.087883	0.128636	6148.712402
7699.356111	0.997397	0.120713	437.857483
7699.357068	1.471520	0.120713	1846.102051
7699.357975	1.467740	0.120713	3177.342773
7699.358884	1.432826	0.120713	4479.781250
7699.359781	0.955660	0.120713	5337.008789
7699.360723	0.104960	0.120713	5435.880859
7699.361632	0.087755	0.120713	5515.650391
7699.362536	0.087803	0.120713	5595.023926
7699.363419	0.087946	0.120713	5672.679687
7699.364369	0.087821	0.120713	5756.109863
7699.365278	0.087847	0.120713	5835.962402
7699.366169	0.087869	0.120713	5914.253418
7699.367105	0.087861	0.120713	5996.491699
7699.368001	0.087990	0.120713	6075.330078
7699.368901	0.087810	0.120713	6154.359375
7700.361175	1.007065	0.128024	444.115845
7700.362086	1.472153	0.128024	1785.247559
7700.362985	1.469473	0.128024	3106.303467
7700.363931	1.433203	0.128024	4462.113770
7700.364861	0.930352	0.128024	5327.340820
7700.365764	0.107183	0.128024	5424.126953
7700.366650	0.087748	0.128024	5501.871582
7700.367601	0.087971	0.128024	5585.532227
7700.368508	0.087850	0.128024	5665.212402
7700.369400	0.087839	0.128024	5743.564941
7700.370348	0.087964	0.128024	5826.954590
7700.371246	0.087957	0.128024	5905.939453
7700.372142	0.087880	0.128024	5984.679687
7700.373030	0.087935	0.128024	6062.765625
7700.373970	0.087898	0.128024	6145.389648
7701.427189	1.014987	0.119806	490.238556
7701.428119	1.475446	0.119806	1862.402954
7701.429031	1.466982	0.119806	3200.291016
7701.429924	1.432749	0.119806	4479.735840
7701.430896	0.862749	0.119806	5318.327637
7701.431805	0.101829	0.119806	5410.889648
7701.432696	0.087777	0.119806	5489.099121
7701.433588	0.087913	0.119806	5567.517090
7701.434519	0.087913	0.119806	5649.363770
7701.435422	0.087773	0.119806	5728.623047
7701.436314	0.087861	0.119806	5806.995117
7701.437248	0.087843	0.119806	5889.040527
7701.438167	0.087869	0.119806	5969.791992
7701.439086	0.087828	0.119806	6050.506348
7701.439977	0.087909	0.119806	6128.833008
7702.431197	1.017327	0.129615	458.814362
7702.432098	1.472128	0.129615	1785.201416
7702.432994	1.469139	0.129615	3101.550293
7702.433951	1.433159	0.129615	4473.083496
7702.434874	0.930245	0.129615	5331.700195
7702.435767	0.107838	0.129615	5427.999512
7702.436692	0.087821	0.129615	5509.233887
7702.437610	0.087891	0.129615	5589.917480
7702.438518	0.087817	0.129615	5669.655762
7702.439420	0.087861	0.129615	5748.906738
7702.440347	0.087806	0.129615	5830.303223
7702.441249	0.087817	0.129615	5909.514648
7702.442144	0.087909	0.129615	5988.193359
7702.443029	0.087861	0.129615	6065.950684
7702.443968	0.087887	0.129615	6148.476562
7703.498719	1.003865	0.121252	446.719818
7703.499618	1.471359	0.121252	1769.471313
7703.500510	1.469703	0.121252	3080.446777
7703.501468	1.433961	0.121252	4454.181641
7703.502381	0.943850	0.121252	5315.916992
7703.503310	0.106150	0.121252	5414.530273
7703.504204	0.087689	0.121252	5492.924316
7703.505150	0.087817	0.121252	5575.999512
7703.506074	0.087740	0.121252	5657.071777
7703.506967	0.087865	0.121252	5735.535156
7703.507884	0.087788	0.121252	5816.036621
7703.508815	0.087708	0.121252	5897.692383
7703.509734	0.087836	0.121252	5978.413574
7703.510623	0.087931	0.121252	6056.583984
7703.511570	0.087814	0.121252	6139.743652
7704.503808	1.053186	0.128165	510.795227
7704.504725	1.474750	0.128165	1863.140625
7704.505624	1.467843	0.128165	3182.731445
7704.506559	1.432042	0.128165	4521.690918
7704.507489	0.876731	0.128165	5337.050781
7704.508388	0.103055	0.128165	5429.697754
7704.509276	0.087726	0.128165	5507.598145
7704.510224	0.087905	0.128165	5590.932129
7704.511132	0.087810	0.128165	5670.663574
7704.512038	0.087817	0.128165	5750.226074
7704.512926	0.087865	0.128165	5828.250000
7704.513867	0.087927	0.128165	5910.989746
7704.514770	0.087916	0.128165	5990.377930
7704.515662	0.087858	0.128165	6068.747070
7704.516591	0.087872	0.128165	6150.380371
7705.570272	1.012258	0.120882	456.528503
7705.571192	1.473120	0.120882	1811.799072
7705.572093	1.468729	0.120882	3135.124023
7705.573032	1.433225	0.120882	4480.922363
7705.573966	0.909694	0.120882	5330.576172
7705.574874	0.104762	0.120882	5425.700195
7705.575771	0.087825	0.120882	5504.479004
7705.576701	0.088026	0.120882	5586.343262
7705.577600	0.087920	0.120882	5665.383301
7705.578499	0.087949	0.120882	5744.449707
7705.579387	0.087854	0.120882	5822.463867
7705.580329	0.087898	0.120882	5905.263672
7705.581230	0.087964	0.120882	5984.519043
7705.582128	0.087814	0.120882	6063.375977
7705.583060	0.087931	0.120882	6145.327637
7706.575311	0.995446	0.128145	434.014252
7706.576254	1.471117	0.128145	1821.277588
7706.577177	1.467708	0.128145	3175.971680
7706.578093	1.432698	0.128145	4488.322754
7706.579001	0.930743	0.128145	5333.437988
7706.579940	0.104945	0.128145	5431.981445
7706.580843	0.087905	0.128145	5511.359863
7706.581746	0.087913	0.128145	5590.745117
7706.582633	0.087872	0.128145	5668.687988
7706.583576	0.087982	0.128145	5751.655273
7706.584475	0.087887	0.128145	5830.665527
7706.585376	0.087902	0.128145	5909.864746
7706.586316	0.087957	0.128145	5992.543945
7706.587219	0.088110	0.128145	6072.107422
7706.588127	0.087876	0.128145	6151.898926
7707.641317	1.025270	0.120600	469.573547
7707.642213	1.472574	0.120600	1789.000244
7707.643163	1.468151	0.120600	3183.743164
7707.644072	1.432786	0.120600	4486.145508
7707.644979	0.942667	0.120600	5341.144531
7707.645863	0.110724	0.120600	5439.024414
7707.646799	0.087902	0.120600	5521.300293
7707.647707	0.087880	0.120600	5601.095215
7707.648596	0.087909	0.120600	5679.246094
7707.649526	0.087931	0.120600	5761.021973
7707.650426	0.087997	0.120600	5840.219238
7707.651332	0.087726	0.120600	5919.698730
7707.652223	0.087861	0.120600	5997.983398
7707.653171	0.087949	0.120600	6081.359375
7707.654071	0.087876	0.120600	6160.447754
7708.646864	0.997123	0.127037	436.739807
7708.647784	1.471838	0.127037	1790.831055
7708.648692	1.469011	0.127037	3124.693359
7708.649632	1.433441	0.127037	4472.127930
7708.650547	0.942799	0.127037	5334.789062
7708.651438	0.109977	0.127037	5432.778320
7708.652327	0.087755	0.127037	5510.792480
7708.653267	0.087931	0.127037	5593.447754
7708.654168	0.087887	0.127037	5672.633789
7708.655065	0.087755	0.127037	5751.350098
7708.655972	0.087799	0.127037	5830.983887
7708.656908	0.087924	0.127037	5913.280273
7708.657819	0.087869	0.127037	5993.328613
7708.658713	0.087968	0.127037	6071.971680
7708.659645	0.087964	0.127037	6153.954102
7709.712908	1.052527	0.119424	529.421021
7709.713816	1.475702	0.119424	1869.358398
7709.714728	1.466858	0.119424	3207.132812
7709.715623	1.431892	0.119424	4488.676270
7709.716583	0.864880	0.119424	5318.961426
7709.717486	0.101722	0.119424	5410.816895
7709.718381	0.087671	0.119424	5489.282227
7709.719309	0.087975	0.119424	5570.922852
7709.720210	0.088000	0.119424	5650.211426
7709.721119	0.087869	0.119424	5730.083984
7709.722008	0.087810	0.119424	5808.146973
7709.722949	0.087861	0.119424	5890.824707
7709.723846	0.087894	0.119424	5969.666016
7709.724747	0.087784	0.119424	6048.759766
7709.725635	0.087942	0.119424	6126.852051
7710.717905	0.997921	0.128922	442.079041
7710.718800	1.471102	0.128922	1758.715576
7710.719696	1.469579	0.128922	3075.458252
7710.720675	1.432771	0.128922	4478.141113
7710.721590	0.932208	0.128922	5331.111816
7710.722480	0.108574	0.128922	5427.742676
7710.723404	0.087821	0.128922	5508.889160
7710.724332	0.087876	0.128922	5590.437988
7710.725227	0.087858	0.128922	5669.070801
7710.726114	0.087847	0.128922	5746.990723
7710.727045	0.087865	0.128922	5828.792969
7710.727948	0.087902	0.128922	5908.167969
7710.728864	0.087836	0.128922	5988.625488
7710.729762	0.087913	0.128922	6067.570801
7710.730718	0.087832	0.128922	6151.538086
7711.784393	0.992208	0.119774	433.595032
7711.785287	1.470366	0.119774	1748.102295
7711.786238	1.468583	0.119774	3144.724609
7711.787153	1.433170	0.119774	4456.075195
7711.788067	0.956415	0.119774	5330.238281
7711.788971	0.111639	0.119774	5431.160156
7711.789908	0.087810	0.119774	5513.437988
7711.790821	0.087946	0.119774	5593.732422
7711.791712	0.087869	0.119774	5672.023437
7711.792655	0.087997	0.119774	5755.004395
7711.793550	0.087964	0.119774	5833.731934
7711.794449	0.087850	0.119774	5912.709473
7711.795340	0.087891	0.119774	5991.020020
7711.796279	0.087982	0.119774	6073.635254
7711.797192	0.087887	0.119774	6153.875977
7712.789467	1.009113	0.128644	447.036865
7712.790388	1.472812	0.128644	1803.497070
7712.791295	1.468561	0.128644	3135.481689
7712.792213	1.433470	0.128644	4451.407715
7712.793151	0.934109	0.128644	5327.602051
7712.794057	0.108406	0.128644	5425.817871
7712.794950	0.087733	0.128644	5504.163574
7712.795890	0.087942	0.128644	5586.829102
7712.796787	0.087876	0.128644	5665.653809
7712.797687	0.087993	0.128644	5744.847656
7712.798575	0.087883	0.128644	5822.888184
7712.799517	0.088000	0.128644	5905.784668
7712.800426	0.087909	0.128644	5985.693848
7712.801329	0.087784	0.128644	6064.963379
7712.802240	0.087825	0.128644	6144.971680
7713.855446	0.997778	0.119927	439.022461
7713.856346	1.471293	0.119927	1763.185913
7713.857308	1.467466	0.119927	3174.887939
7713.858216	1.432745	0.119927	4475.820801
7713.859115	0.950530	0.119927	5330.347168
7713.860054	0.107399	0.119927	5431.194336
7713.860971	0.087737	0.119927	5511.648926
7713.861891	0.087979	0.119927	5592.589355
7713.862779	0.087880	0.119927	5670.626465
7713.863726	0.087828	0.119927	5753.799805
7713.864618	0.087865	0.119927	5832.175293
7713.865505	0.087854	0.119927	5910.101562
7713.866426	0.087920	0.119927	5991.075684
7713.867347	0.087913	0.119927	6072.042969
7713.868243	0.087916	0.119927	6150.815918
7714.861511	0.987770	0.129486	426.716553
7714.862467	1.473431	0.129486	1835.316895
7714.863393	1.467198	0.129486	3193.942871
7714.864310	1.432185	0.129486	4507.256836
7714.865211	0.904871	0.129486	5322.545410
7714.866175	0.099972	0.129486	5418.918457
7714.867084	0.087836	0.129486	5498.761230
7714.867980	0.087861	0.129486	5577.484863
7714.868914	0.087817	0.129486	5659.506348
7714.869818	0.087836	0.129486	5738.909668
7714.870716	0.087729	0.129486	5817.690918
7714.871600	0.087825	0.129486	5895.328125
7714.872540	0.087971	0.129486	5978.020996
7714.873440	0.087916	0.129486	6057.145508
7714.874344	0.087825	0.129486	6136.539062
7715.926996	1.010175	0.120624	454.578522
7715.927896	1.471893	0.120624	1779.282471
7715.928844	1.468264	0.120624	3171.196777
7715.929756	1.432914	0.120624	4478.014160
7715.930666	0.940001	0.120624	5333.415039
7715.931556	0.109750	0.120624	5431.092285
7715.932521	0.087916	0.120624	5515.931641
7715.933422	0.087938	0.120624	5595.164062
7715.934322	0.087770	0.120624	5674.156738
7715.935222	0.087894	0.120624	5753.261719
7715.936145	0.087821	0.120624	5834.320312
7715.937044	0.087832	0.120624	5913.281250
7715.937939	0.087817	0.120624	5991.877930
7715.938869	0.087898	0.120624	6073.623047
7715.939775	0.087913	0.120624	6153.271973
7716.932617	1.055563	0.127601	533.059204
7716.933530	1.475369	0.127601	1880.070801
7716.934437	1.466733	0.127601	3210.397949
7716.935331	1.432108	0.127601	4490.702637
7716.936293	0.870948	0.127601	5328.555176
7716.937186	0.102656	0.127601	5420.227051
7716.938079	0.087788	0.127601	5498.621582
7716.939004	0.087880	0.127601	5579.910156
7716.939924	0.087799	0.127601	5660.685547
7716.940827	0.087869	0.127601	5740.030762
7716.941717	0.087817	0.127601	5818.187988
7716.942672	0.087795	0.127601	5902.032715
7716.943576	0.087810	0.127601	5981.413086
7716.944475	0.087806	0.127601	6060.351074
7716.945359	0.087920	0.127601	6138.072266
7717.998589	1.023153	0.119830	499.298706
7717.999512	1.475665	0.119830	1861.337646
7718.000420	1.466865	0.119830	3193.251221
7718.001311	1.432639	0.119830	4469.732422
7718.002277	0.868608	0.119830	5308.808105
7718.003174	0.102539	0.119830	5400.785645
7718.004075	0.087781	0.119830	5479.875977
7718.004965	0.087810	0.119830	5558.026855
7718.005901	0.088019	0.119830	5640.412598
7718.006812	0.087839	0.119830	5720.434082
7718.007709	0.087854	0.119830	5799.239258
7718.008647	0.087971	0.119830	5881.756348
7718.009559	0.087891	0.119830	5961.912598
7718.010460	0.087740	0.119830	6040.966797
7718.011348	0.087865	0.119830	6118.990723
7719.004126	0.999760	0.129450	446.892517
7719.005025	1.471798	0.129450	1770.039062
7719.005972	1.468477	0.129450	3160.686523
7719.006885	1.432416	0.129450	4468.482422
7719.007822	0.907178	0.129450	5318.507812
7719.008714	0.105959	0.129450	5413.023437
7719.009651	0.087850	0.129450	5495.339355
7719.010558	0.087836	0.129450	5575.006348
7719.011487	0.087887	0.129450	5656.653320
7719.012378	0.087953	0.129450	5735.019531
7719.013329	0.087949	0.129450	5818.659180
7719.014227	0.087806	0.129450	5897.509277
7719.015114	0.087938	0.129450	5975.510254
7719.016050	0.087898	0.129450	6057.782715
7719.016961	0.087927	0.129450	6137.884277
7720.069579	0.996797	0.120668	437.593811
7720.070479	1.470908	0.120668	1761.411133
7720.071375	1.469074	0.120668	3077.701172
7720.072337	1.433298	0.120668	4456.534180
7720.073260	0.948549	0.120668	5332.044434
7720.074152	0.109944	0.120668	5430.114258
7720.075080	0.087773	0.120668	5511.567871
7720.075982	0.087964	0.120668	5590.911133
7720.076882	0.087876	0.120668	5669.999512
7720.077769	0.087777	0.120668	5747.857910
7720.078719	0.087883	0.120668	5831.347168
7720.079610	0.087803	0.120668	5909.579590
7720.080506	0.087825	0.120668	5988.270508
7720.081394	0.087773	0.120668	6066.213379
7720.082337	0.087891	0.120668	6149.094238
7721.076184	1.008929	0.128785	449.982544
7721.077089	1.472036	0.128785	1782.175293
7721.077980	1.469143	0.128785	3091.181641
7721.078940	1.433536	0.128785	4467.376465
7721.079862	0.936584	0.128785	5330.907227
7721.080754	0.109014	0.128785	5428.147461
7721.081680	0.087788	0.128785	5509.439453
7721.082592	0.087847	0.128785	5589.555664
7721.083495	0.087865	0.128785	5668.897949
7721.084384	0.087872	0.128785	5747.016602
7721.085341	0.087935	0.128785	5831.169922
7721.086240	0.087858	0.128785	5910.153809
7721.087140	0.087839	0.128785	5989.208984
7721.088038	0.087843	0.128785	6068.091797
7721.088959	0.087997	0.128785	6149.136719
7722.141126	0.989202	0.120245	428.324310
7722.142088	1.473040	0.120245	1845.388306
7722.143018	1.466979	0.120245	3209.678711
7722.143923	1.432079	0.120245	4505.709961
7722.144825	0.912363	0.120245	5328.661621
7722.145774	0.101437	0.120245	5424.925293
7722.146675	0.087719	0.120245	5503.959473
7722.147560	0.087795	0.120245	5581.658203
7722.148488	0.087843	0.120245	5663.176758
7722.149395	0.087869	0.120245	5742.873535
7722.150305	0.087744	0.120245	5822.720703
7722.151193	0.087836	0.120245	5900.718750
7722.152118	0.087876	0.120245	5982.003906
7722.153028	0.087854	0.120245	6061.951172
7722.153929	0.087894	0.120245	6141.144043
7723.147725	1.007175	0.128439	443.157135
7723.148687	1.474420	0.128439	1861.549316
7723.149602	1.467360	0.128439	3204.183350
7723.150500	1.432416	0.128439	4490.492676
7723.151448	0.889578	0.128439	5333.812500
7723.152352	0.103348	0.128439	5427.239258
7723.153253	0.087773	0.128439	5506.323242
7723.154141	0.087953	0.128439	5584.425293
7723.155096	0.088011	0.128439	5668.476074
7723.156001	0.087913	0.128439	5748.037109
7723.156906	0.087894	0.128439	5827.581543
7723.157793	0.087894	0.128439	5905.543945
7723.158741	0.087935	0.128439	5988.905762
7723.159655	0.087781	0.128439	6069.137207
7723.160541	0.087861	0.128439	6146.982422
7724.212693	1.008245	0.119810	452.701843
7724.213592	1.471890	0.119810	1775.930664
7724.214523	1.468949	0.119810	3143.521973
7724.215435	1.433760	0.119810	4451.110840
7724.216366	0.941323	0.119810	5327.482910
7724.217253	0.110647	0.119810	5425.626953
7724.218195	0.087872	0.119810	5508.402832
7724.219101	0.087847	0.119810	5587.991699
7724.220008	0.087883	0.119810	5667.701660
7724.220896	0.087792	0.119810	5745.660645
7724.221846	0.087920	0.119810	5829.184570
7724.222758	0.087891	0.119810	5909.340820
7724.223662	0.087880	0.119810	5988.784180
7724.224592	0.087968	0.119810	6070.593750
7724.225498	0.087968	0.119810	6150.292480
7725.219284	1.008160	0.129700	446.615082
7725.220187	1.471443	0.129700	1775.328003
7725.221083	1.469268	0.129700	3091.791748
7725.222034	1.433331	0.129700	4454.889648
7725.222956	0.941550	0.129700	5322.999023
7725.223869	0.107216	0.129700	5420.886719
7725.224760	0.087891	0.129700	5499.197266
7725.225704	0.087876	0.129700	5582.152344
7725.226603	0.087781	0.129700	5661.067383
7725.227490	0.087858	0.129700	5738.997070
7725.228443	0.087894	0.129700	5822.760254
7725.229353	0.087850	0.129700	5902.704102
7725.230250	0.087876	0.129700	5981.528809
7725.231141	0.087902	0.129700	6059.849121
7725.232069	0.088011	0.129700	6141.523926
7726.283723	0.990011	0.120910	433.624786
7726.284677	1.474325	0.120910	1840.130737
7726.285595	1.467272	0.120910	3187.086182
7726.286509	1.432244	0.120910	4496.157227
7726.287405	0.922116	0.120910	5322.372559
7726.288350	0.103136	0.120910	5419.835937
7726.289254	0.087817	0.120910	5499.222656
7726.290147	0.087905	0.120910	5577.722168
7726.291094	0.087902	0.120910	5660.964844
7726.291990	0.087949	0.120910	5739.767578
7726.292891	0.087770	0.120910	5818.848145
7726.293779	0.087902	0.120910	5896.904785
7726.294713	0.087949	0.120910	5979.049316
7726.295611	0.087810	0.120910	6057.902832
7726.296522	0.087828	0.120910	6137.914551
7727.290828	0.991329	0.129502	435.193604
7727.291724	1.470560	0.129502	1752.815674
7727.292702	1.467264	0.129502	3187.800293
7727.293615	1.432401	0.129502	4495.582520
7727.294514	0.936702	0.129502	5337.677246
7727.295474	0.103228	0.129502	5436.775879
7727.296377	0.087711	0.129502	5515.979004
7727.297300	0.087821	0.129502	5597.037598
7727.298183	0.087865	0.129502	5674.622559
7727.299125	0.087755	0.129502	5757.288086
7727.300028	0.087865	0.129502	5836.630371
7727.300944	0.087887	0.129502	5917.134766
7727.301833	0.087898	0.129502	5995.275879
7727.302785	0.087909	0.129502	6078.965332
7727.303706	0.087762	0.129502	6159.794434
7728.355283	1.009885	0.121047	451.418732
7728.356187	1.471545	0.121047	1781.695679
7728.357081	1.469385	0.121047	3095.325684
7728.358049	1.432859	0.121047	4482.333008
7728.358969	0.924998	0.121047	5333.330566
7728.359859	0.108131	0.121047	5429.567383
7728.360806	0.087839	0.121047	5512.751465
7728.361709	0.087946	0.121047	5592.166504
7728.362612	0.087913	0.121047	5671.551758
7728.363500	0.087964	0.121047	5749.663574
7728.364443	0.087839	0.121047	5832.496094
7728.365353	0.087931	0.121047	5912.513184
7728.366258	0.087913	0.121047	5992.074219
7728.367147	0.087773	0.121047	6070.104980
7728.368094	0.087964	0.121047	6153.406738
7729.362391	1.009757	0.128741	454.390656
7729.363285	1.471315	0.128741	1769.745972
7729.364250	1.467883	0.128741	3186.253418
7729.365159	1.432712	0.128741	4488.588867
7729.366072	0.934112	0.128741	5341.433594
7729.366958	0.109413	0.128741	5438.373535
7729.367904	0.087722	0.128741	5521.358887
7729.368819	0.087891	0.128741	5601.778809
7729.369714	0.087773	0.128741	5680.335937
7729.370632	0.087847	0.128741	5760.979004
7729.371548	0.087964	0.128741	5841.553711
7729.372455	0.087766	0.128741	5921.157715
7729.373341	0.087858	0.128741	5998.999512
7729.374264	0.088041	0.128741	6080.261230
7729.375166	0.087891	0.128741	6159.538574
7730.426827	0.991959	0.119859	434.478149
7730.427724	1.470377	0.119859	1753.406494
7730.428696	1.467565	0.119859	3179.879395
7730.429593	1.432877	0.119859	4465.170410
7730.430491	0.965281	0.119859	5331.992676
7730.431427	0.112361	0.119859	5437.162598
7730.432345	0.087711	0.119859	5517.681641
7730.433245	0.087810	0.119859	5596.710937
7730.434136	0.087843	0.119859	5674.979004
7730.435071	0.087872	0.119859	5757.139648
7730.435987	0.087759	0.119859	5837.526855
7730.436902	0.087865	0.119859	5917.923340
7730.437785	0.087821	0.119859	5995.469238
7730.438731	0.087880	0.119859	6078.603516
7730.439625	0.087788	0.119859	6157.085937
7731.433982	1.032876	0.128475	508.174988
7731.434894	1.474812	0.128475	1853.203613
7731.435798	1.467784	0.128475	3180.080566
7731.436693	1.433035	0.128475	4462.646484
7731.437649	0.886992	0.128475	5310.610840
7731.438554	0.103495	0.128475	5404.273926
7731.439452	0.087773	0.128475	5483.094238
7731.440357	0.087861	0.128475	5562.608887
7731.441285	0.087979	0.128475	5644.252930
7731.442194	0.087825	0.128475	5724.085449
7731.443091	0.087821	0.128475	5802.860840
7731.444042	0.087913	0.128475	5886.465820
7731.444951	0.087891	0.128475	5966.358398
7731.445847	0.087854	0.128475	6045.075684
7731.446733	0.087836	0.128475	6122.897949
7732.497868	0.997229	0.120519	436.786255
7732.498788	1.471992	0.120519	1791.019043
7732.499695	1.468986	0.120519	3123.389160
7732.500653	1.432690	0.120519	4495.906250
7732.501565	0.923873	0.120519	5338.478516
7732.502458	0.107849	0.120519	5434.787598
7732.503344	0.087660	0.120519	5512.454102
7732.504270	0.087993	0.120519	5593.935547
7732.505174	0.087887	0.120519	5673.385254
7732.506068	0.087814	0.120519	5751.890625
7732.506999	0.087806	0.120519	5833.638184
7732.507913	0.088022	0.120519	5914.090820
7732.508823	0.087737	0.120519	5993.931152
7732.509723	0.087814	0.120519	6072.963379
7732.510667	0.087935	0.120519	6155.973633
7733.504977	1.009226	0.130437	447.087158
7733.505892	1.472058	0.130437	1794.020264
7733.506787	1.469443	0.130437	3109.172119
7733.507705	1.433972	0.130437	4425.558594
7733.508657	0.937954	0.130437	5318.490723
7733.509555	0.109321	0.130437	5416.661133
7733.510441	0.087675	0.130437	5494.340820
7733.511374	0.087821	0.130437	5576.277832
7733.512283	0.087715	0.130437	5656.010742
7733.513199	0.087759	0.130437	5736.397949
7733.514090	0.087817	0.130437	5814.643066
7733.515058	0.087828	0.130437	5899.661133
7733.515960	0.087821	0.130437	5978.875488
7733.516849	0.087773	0.130437	6056.906250
7733.517767	0.087847	0.130437	6137.549316
7734.569418	0.991216	0.120596	431.178894
7734.570387	1.472728	0.120596	1858.252686
7734.571306	1.466964	0.120596	3206.392578
7734.572214	1.431735	0.120596	4506.407715
7734.573115	0.926206	0.120596	5340.919434
7734.574076	0.101957	0.120596	5438.899902
7734.574976	0.087777	0.120596	5517.899414
7734.575872	0.087755	0.120596	5596.527832
7734.576794	0.087832	0.120596	5677.508789
7734.577701	0.087953	0.120596	5757.282227
7734.578614	0.087832	0.120596	5837.472656
7734.579510	0.087850	0.120596	5916.186523
7734.580441	0.087938	0.120596	5998.057129
7734.581346	0.087905	0.120596	6077.611328
7734.582245	0.087953	0.120596	6156.681152
7735.577080	1.050875	0.128048	505.470978
7735.578003	1.475138	0.128048	1867.023315
7735.578916	1.467242	0.128048	3206.615723
7735.579808	1.432035	0.128048	4483.990723
7735.580780	0.864401	0.128048	5324.187988
7735.581680	0.102023	0.128048	5416.008301
7735.582574	0.087821	0.128048	5494.520508
7735.583519	0.087887	0.128048	5577.573730
7735.584421	0.087916	0.128048	5656.874023
7735.585317	0.087821	0.128048	5735.561523
7735.586201	0.087898	0.128048	5813.263184
7735.587133	0.087964	0.128048	5895.245605
7735.588040	0.087891	0.128048	5974.962402
7735.588941	0.087810	0.128048	6054.079102
7735.589827	0.087872	0.128048	6131.934082
7736.640993	1.016272	0.120874	458.338654
7736.641897	1.472212	0.120874	1789.218140
7736.642791	1.469169	0.120874	3102.654785
7736.643748	1.432668	0.120874	4473.718750
7736.644667	0.924910	0.120874	5323.710937
7736.645568	0.106989	0.120874	5420.107422
7736.646466	0.087737	0.120874	5498.895020
7736.647397	0.087843	0.120874	5580.676758
7736.648301	0.087711	0.120874	5659.967773
7736.649196	0.087810	0.120874	5738.557617
7736.650138	0.087997	0.120874	5821.450684
7736.651043	0.088059	0.120874	5901.144043
7736.651942	0.087858	0.120874	5980.127930
7736.652827	0.087773	0.120874	6057.807617
7736.653766	0.087927	0.120874	6140.371094
7737.648084	1.003726	0.128745	449.669037
7737.648983	1.471421	0.128745	1772.476440
7737.649921	1.468557	0.128745	3149.982910
7737.650834	1.433178	0.128745	4458.474121
7737.651751	0.951094	0.128745	5330.626953
7737.652642	0.111031	0.128745	5429.556152
7737.653597	0.087913	0.128745	5513.512695
7737.654509	0.087968	0.128745	5593.739258
7737.655412	0.087968	0.128745	5673.173828
7737.656297	0.087836	0.128745	5750.908203
7737.657252	0.087913	0.128745	5834.864746
7737.658160	0.087817	0.128745	5914.603027
7737.659047	0.087843	0.128745	5992.520020
7737.659978	0.088052	0.128745	6074.496094
7737.660893	0.087920	0.128745	6154.942871
7738.712521	0.993105	0.120209	433.987091
7738.713418	1.470758	0.120209	1753.257080
7738.714364	1.468059	0.120209	3142.041016
7738.715282	1.432892	0.120209	4457.435547
7738.716217	0.925426	0.120209	5322.708984
7738.717106	0.107937	0.120209	5418.665039
7738.718080	0.087781	0.120209	5504.163574
7738.718979	0.087784	0.120209	5583.081543
7738.719872	0.087898	0.120209	5661.574219
7738.720809	0.087876	0.120209	5743.914062
7738.721722	0.087847	0.120209	5824.118164
7738.722637	0.087847	0.120209	5904.498047
7738.723523	0.087861	0.120209	5982.343262
7738.724473	0.087839	0.120209	6065.790527
7738.725378	0.087821	0.120209	6145.268555
7739.719686	1.028606	0.128874	513.274353
7739.720607	1.475848	0.128874	1872.530762
7739.721519	1.466488	0.128874	3209.967773
7739.722413	1.432222	0.128874	4490.374023
7739.723380	0.850302	0.128874	5312.615723
7739.724284	0.100228	0.128874	5403.222168
7739.725188	0.087839	0.128874	5482.628906
7739.726073	0.087872	0.128874	5560.395996
7739.727016	0.087935	0.128874	5643.318359
7739.727919	0.087883	0.128874	5722.676758
7739.728811	0.087975	0.128874	5801.150391
7739.729733	0.087927	0.128874	5882.219238
7739.730636	0.087847	0.128874	5961.544922
7739.731533	0.087869	0.128874	6040.363281
7739.732417	0.087810	0.128874	6117.987305
7740.784076	0.997053	0.120294	437.706329
7740.784977	1.471080	0.120294	1763.149658
7740.785872	1.469458	0.120294	3078.314453
7740.786846	1.432925	0.120294	4473.983398
7740.787769	0.933065	0.120294	5335.202637
7740.788666	0.108142	0.120294	5432.206055
7740.789604	0.087843	0.120294	5514.603027
7740.790503	0.087982	0.120294	5593.699219
7740.791400	0.087869	0.120294	5672.517578
7740.792286	0.087942	0.120294	5750.434082
7740.793228	0.087993	0.120294	5833.323730
7740.794137	0.087847	0.120294	5913.176270
7740.795047	0.087913	0.120294	5993.176758
7740.795939	0.087883	0.120294	6071.568848
7740.796897	0.087905	0.120294	6155.782227
7741.791190	1.006780	0.128322	447.010223
7741.792091	1.471685	0.128322	1772.998047
7741.792985	1.469062	0.128322	3086.339844
7741.793955	1.432775	0.128322	4476.131348
7741.794875	0.929945	0.128322	5331.680664
7741.795765	0.108699	0.128322	5428.422363
7741.796718	0.087839	0.128322	5512.133301
7741.797625	0.087766	0.128322	5591.737305
7741.798527	0.087850	0.128322	5670.978516
7741.799414	0.087935	0.128322	5748.976562
7741.800357	0.087861	0.128322	5831.829590
7741.801271	0.087770	0.128322	5912.051270
7741.802173	0.087931	0.128322	5991.364746
7741.803066	0.087927	0.128322	6069.883789
7741.804022	0.088000	0.128322	6154.012207
7742.855118	0.993274	0.120882	434.060699
7742.856071	1.471088	0.120882	1836.007080
7742.856984	1.467495	0.120882	3175.830078
7742.857896	1.432665	0.120882	4482.420410
7742.858795	0.948988	0.120882	5335.560547
7742.859741	0.103923	0.120882	5433.872070
7742.860643	0.087719	0.120882	5512.994141
7742.861545	0.087858	0.120882	5592.241699
7742.862434	0.087920	0.120882	5670.402344
7742.863382	0.088015	0.120882	5753.840820
7742.864291	0.087759	0.120882	5833.613770
7742.865184	0.087729	0.120882	5911.956055
7742.866122	0.087935	0.120882	5994.438477
7742.867036	0.087847	0.120882	6074.730469
7742.867935	0.087861	0.120882	6153.717773
7743.862216	1.000107	0.128020	439.047150
7743.863173	1.474666	0.128020	1850.302002
7743.864098	1.467012	0.128020	3207.287842
7743.865001	1.432485	0.128020	4500.822266
7743.865954	0.874977	0.128020	5334.675293
7743.866862	0.101133	0.128020	5426.503906
7743.867767	0.087762	0.128020	5505.928711
7743.868656	0.087865	0.128020	5584.040527
7743.869595	0.087920	0.128020	5666.597168
7743.870496	0.087942	0.128020	5745.833008
7743.871392	0.087902	0.128020	5824.592773
7743.872283	0.087832	0.128020	5902.851074
7743.873220	0.088011	0.128020	5985.317871
7743.874140	0.087847	0.128020	6066.136719
7743.875035	0.087869	0.128020	6144.779297
7744.927205	1.019264	0.119399	464.784332
7744.928107	1.472325	0.119399	1792.821899
7744.929003	1.468821	0.119399	3108.885254
7744.929951	1.433441	0.119399	4467.787598
7744.930895	0.898762	0.119399	5316.219238
7744.931800	0.104506	0.119399	5410.796875
7744.932693	0.087762	0.119399	5489.168945
7744.933633	0.087902	0.119399	5571.796387
7744.934539	0.087751	0.119399	5651.299316
7744.935458	0.087927	0.119399	5732.104492
7744.936343	0.087872	0.119399	5809.871582
7744.937311	0.087898	0.119399	5894.957031
7744.938207	0.087847	0.119399	5973.667480
7744.939095	0.087806	0.119399	6051.639648
7744.940038	0.087858	0.119399	6134.489258
7745.934293	0.995413	0.128467	437.981567
7745.935185	1.470242	0.128467	1749.437134
7745.936155	1.467858	0.128467	3173.259277
7745.937059	1.432742	0.128467	4468.458008
7745.937980	0.931472	0.128467	5326.343750
7745.938870	0.108904	0.128467	5423.268066
7745.939826	0.087722	0.128467	5507.130371
7745.940737	0.087876	0.128467	5587.185547
7745.941633	0.087814	0.128467	5665.866699
7745.942566	0.087905	0.128467	5747.882324
7745.943470	0.087916	0.128467	5827.358398
7745.944366	0.087781	0.128467	5906.009766
7745.945251	0.087781	0.128467	5983.695801
7745.946196	0.087810	0.128467	6066.676270
7745.947089	0.087836	0.128467	6145.113770
7746.997724	1.008772	0.120342	452.938629
7746.998617	1.471307	0.120342	1766.816162
7746.999580	1.467440	0.120342	3179.960937
7747.000505	1.432163	0.120342	4504.711914
7747.001410	0.914275	0.120342	5332.130859
7747.002349	0.105923	0.120342	5431.592285
7747.003256	0.087744	0.120342	5511.176270
7747.004158	0.087964	0.120342	5590.519531
7747.005048	0.087843	0.120342	5668.699707
7747.005997	0.087949	0.120342	5752.163574
7747.006904	0.087924	0.120342	5831.910156
7747.007806	0.087854	0.120342	5911.154297
7747.008691	0.087869	0.120342	5988.917969
7747.009637	0.088019	0.120342	6072.183594
7747.010551	0.087861	0.120342	6152.488770
7748.005321	0.993794	0.128487	435.281769
7748.006261	1.470714	0.128487	1817.753052
7748.007196	1.467338	0.128487	3189.713867
7748.008097	1.432866	0.128487	4480.726562
7748.008997	0.951138	0.128487	5336.750488
7748.009941	0.108585	0.128487	5439.254883
7748.010842	0.087675	0.128487	5518.249512
7748.011761	0.087847	0.128487	5598.980469
7748.012660	0.087755	0.128487	5677.872559
7748.013606	0.087949	0.128487	5761.072754
7748.014505	0.087865	0.128487	5840.063477
7748.015394	0.087887	0.128487	5918.194824
7748.016314	0.087927	0.128487	5999.087891
7748.017231	0.087828	0.128487	6079.626465
7748.018121	0.087858	0.128487	6157.819824
7749.069275	1.010464	0.121244	446.625000
7749.070195	1.472454	0.121244	1801.282349
7749.071099	1.468689	0.121244	3128.977051
7749.072037	1.433529	0.121244	4473.627441
7749.072977	0.908298	0.121244	5327.427734
7749.073885	0.105022	0.121244	5422.787598
7749.074778	0.087792	0.121244	5501.185547
7749.075711	0.087953	0.121244	5583.245605
7749.076616	0.087891	0.121244	5662.786621
7749.077511	0.087942	0.121244	5741.494629
7749.078396	0.087861	0.121244	5819.251953
7749.079336	0.087986	0.121244	5901.958496
7749.080254	0.087898	0.121244	5982.648926
7749.081155	0.087854	0.121244	6061.805176
7749.082096	0.087942	0.121244	6144.558594
7750.076894	1.014507	0.128097	458.557068
7750.077791	1.471945	0.128097	1778.891357
7750.078736	1.468286	0.128097	3166.421631
7750.079645	1.432720	0.128097	4468.763672
7750.080559	0.942012	0.128097	5329.762695
7750.081448	0.110424	0.128097	5427.929199
7750.082386	0.087880	0.128097	5510.360352
7750.083298	0.087836	0.128097	5590.466309
7750.084197	0.087876	0.128097	5669.466797
7750.085083	0.087957	0.128097	5747.396484
7750.086022	0.087975	0.128097	5830.004883
7750.086927	0.087935	0.128097	5909.585449
7750.087816	0.087924	0.128097	5987.749512
7750.088744	0.087997	0.128097	6069.410645
7750.089651	0.087942	0.128097	6149.173828
7751.141329	0.993413	0.120813	439.088562
7751.142220	1.470297	0.120813	1749.122803
7751.143164	1.468213	0.120813	3135.115723
7751.144083	1.432936	0.120813	4451.983398
7751.145015	0.936691	0.120813	5324.979004
7751.145914	0.108713	0.120813	5422.712402
7751.146878	0.087664	0.120813	5507.220215
7751.147782	0.087766	0.120813	5586.560547
7751.148672	0.087836	0.120813	5664.734375
7751.149622	0.087949	0.120813	5748.286133
7751.150536	0.087748	0.120813	5828.487793
7751.151458	0.087850	0.120813	5909.485840
7751.152341	0.087762	0.120813	5986.979980
7751.153283	0.087927	0.120813	6069.807617
7751.154185	0.087788	0.120813	6148.992676
7752.148955	1.013247	0.124112	453.934723
7752.149877	1.472853	0.124112	1811.905029
7752.150784	1.468491	0.124112	3143.826660
7752.151719	1.433284	0.124112	4483.946777
7752.152649	0.912283	0.124112	5332.369629
7752.153554	0.106168	0.124112	5428.451660
7752.154443	0.087773	0.124112	5506.482422
7752.155378	0.087898	0.124112	5588.666992
7752.156284	0.087927	0.124112	5668.329102
7752.157178	0.087924	0.124112	5746.932617
7752.158068	0.087946	0.124112	5825.204102
7752.159032	0.087993	0.124112	5910.029297
7752.159938	0.087806	0.124112	5989.582031
7752.160834	0.087869	0.124112	6068.312500
7752.161773	0.087924	0.124112	6150.872559
7753.212883	1.004491	0.119484	446.998474
7753.213783	1.471289	0.119484	1771.158691
7753.214678	1.468901	0.119484	3085.825195
7753.215650	1.432841	0.119484	4478.546387
7753.216567	0.934501	0.119484	5335.483398
7753.217462	0.108636	0.119484	5432.712891
7753.218400	0.087799	0.119484	5515.068359
7753.219300	0.087957	0.119484	5594.229492
7753.220188	0.087762	0.119484	5672.162598
7753.221071	0.087920	0.119484	5749.795898
7753.222009	0.087975	0.119484	5832.316406
7753.222915	0.087902	0.119484	5911.955078
7753.223823	0.087777	0.119484	5991.656738
7753.224713	0.087891	0.119484	6069.879395
7753.225680	0.087916	0.119484	6154.894531
7754.220002	1.023387	0.127730	465.641296
7754.220910	1.473120	0.127730	1803.234375
7754.221834	1.468257	0.127730	3159.903809
7754.222776	1.432126	0.127730	4508.966797
7754.223702	0.892262	0.127730	5335.201172
7754.224595	0.104758	0.127730	5428.750488
7754.225547	0.087920	0.127730	5512.450195
7754.226455	0.087817	0.127730	5592.188477
7754.227352	0.087843	0.127730	5670.983887
7754.228236	0.087821	0.127730	5748.617676
7754.229165	0.087935	0.127730	5830.309082
7754.230067	0.087854	0.127730	5909.553223
7754.230955	0.087836	0.127730	5987.551270
7754.231866	0.087850	0.127730	6067.583008
7754.232801	0.088070	0.127730	6149.928711
7755.284422	0.994709	0.120938	432.698639
7755.285387	1.474944	0.120938	1856.019287
7755.286304	1.467462	0.120938	3201.682129
7755.287205	1.432496	0.120938	4492.361328
7755.288155	0.892251	0.120938	5340.000000
7755.289055	0.103645	0.120938	5433.280273
7755.289956	0.087697	0.120938	5512.294922
7755.290843	0.087887	0.120938	5590.250488
7755.291787	0.087902	0.120938	5673.229492
7755.292692	0.087935	0.120938	5752.810059
7755.293593	0.087799	0.120938	5831.916992
7755.294487	0.087814	0.120938	5910.422363
7755.295445	0.087883	0.120938	5994.614746
7755.296358	0.087788	0.120938	6074.765137
7755.297253	0.087825	0.120938	6153.368164
7756.291588	1.054728	0.126586	527.363892
7756.292505	1.475830	0.126586	1880.700073
7756.293416	1.466744	0.126586	3216.904297
7756.294316	1.431746	0.126586	4505.475586
7756.295287	0.848126	0.126586	5329.005859
7756.296194	0.100986	0.126586	5420.600586
7756.297085	0.087905	0.126586	5498.924316
7756.298023	0.087957	0.126586	5581.427734
7756.298934	0.087960	0.126586	5661.559570
7756.299831	0.087920	0.126586	5740.423828
7756.300718	0.087902	0.126586	5818.392578
7756.301656	0.087931	0.126586	5900.871582
7756.302566	0.087986	0.126586	5980.938477
7756.303466	0.087986	0.126586	6060.125977
7756.304356	0.087858	0.126586	6138.319336
7757.355476	1.004143	0.120487	439.814697
7757.356395	1.472043	0.120487	1792.622559
7757.357307	1.468575	0.120487	3131.963379
7757.358213	1.433430	0.120487	4430.651367
7757.359180	0.910042	0.120487	5310.661621
7757.360082	0.105187	0.120487	5405.540039
7757.360974	0.087847	0.120487	5483.899414
7757.361913	0.087843	0.120487	5566.383789
7757.362818	0.087865	0.120487	5645.901367
7757.363715	0.087843	0.120487	5724.696777
7757.364601	0.087814	0.120487	5802.499512
7757.365539	0.088048	0.120487	5885.088867
7757.366439	0.087828	0.120487	5964.134277
7757.367331	0.087843	0.120487	6042.490234
7757.368254	0.087869	0.120487	6123.592773
7758.362589	1.012602	0.127081	454.658508
7758.363487	1.471956	0.127081	1776.474609
7758.364420	1.468462	0.127081	3146.549561
7758.365345	1.432848	0.127081	4471.933594
7758.366267	0.933673	0.127081	5332.780273
7758.367163	0.108831	0.127081	5430.292480
7758.368114	0.087894	0.127081	5513.879883
7758.369020	0.087755	0.127081	5593.386230
7758.369922	0.087927	0.127081	5672.696777
7758.370809	0.087828	0.127081	5750.600586
7758.371746	0.087953	0.127081	5833.012207
7758.372652	0.087865	0.127081	5912.617676
7758.373548	0.087891	0.127081	5991.367676
7758.374477	0.087902	0.127081	6073.028320
7758.375388	0.088008	0.127081	6153.203613
7759.427014	0.988748	0.121112	428.127686
7759.427952	1.472347	0.121112	1809.189575
7759.428872	1.467938	0.121112	3159.692871
7759.429785	1.433284	0.121112	4468.280762
7759.430683	0.951453	0.121112	5322.685059
7759.431637	0.104828	0.121112	5422.690918
7759.432544	0.087839	0.121112	5502.361328
7759.433438	0.087927	0.121112	5580.968262
7759.434364	0.087975	0.121112	5662.433105
7759.435272	0.087997	0.121112	5742.333984
7759.436177	0.087909	0.121112	5821.891602
7759.437076	0.087799	0.121112	5900.822754
7759.438006	0.087931	0.121112	5982.598633
7759.438921	0.088008	0.121112	6063.125977
7759.439834	0.087858	0.121112	6143.339844
7760.433610	0.991626	0.129506	431.357330
7760.434555	1.473281	0.129506	1823.608154
7760.435471	1.467550	0.129506	3167.884033
7760.436376	1.432998	0.129506	4464.747070
7760.437280	0.943751	0.129506	5317.898437
7760.438240	0.103209	0.129506	5416.979492
7760.439146	0.087744	0.129506	5496.475586
7760.440040	0.087949	0.129506	5575.102051
7760.440968	0.087843	0.129506	5656.620605
7760.441866	0.087924	0.129506	5735.576172
7760.442761	0.087810	0.129506	5814.166016
7760.443644	0.087858	0.129506	5891.744141
7760.444588	0.087920	0.129506	5974.740723
7760.445494	0.087836	0.129506	6054.319824
7760.446393	0.087843	0.129506	6133.290527
7761.498586	1.007794	0.120153	447.460602
7761.499484	1.471377	0.120153	1768.757080
7761.500377	1.469535	0.120153	3081.051758
7761.501347	1.433441	0.120153	4471.489746
7761.502274	0.927250	0.120153	5331.050293
7761.503160	0.108105	0.120153	5426.831543
7761.504081	0.087876	0.120153	5507.765137
7761.504994	0.088015	0.120153	5588.123047
7761.505898	0.087865	0.120153	5667.553223
7761.506794	0.087880	0.120153	5746.293457
7761.507734	0.087865	0.120153	5828.886719
7761.508638	0.087920	0.120153	5908.366211
7761.509536	0.087927	0.120153	5987.324707
7761.510420	0.087920	0.120153	6065.045898
7761.511367	0.087949	0.120153	6148.333984
7762.505213	1.054614	0.129156	513.597107
7762.506130	1.474819	0.129156	1866.006348
7762.507061	1.466265	0.129156	3231.098633
7762.507956	1.431467	0.129156	4512.261719
7762.508938	0.819078	0.129156	5316.596680
7762.509839	0.098961	0.129156	5405.760742
7762.510727	0.087773	0.129156	5483.703613
7762.511668	0.087913	0.129156	5566.429199
7762.512588	0.087836	0.129156	5647.238281
7762.513508	0.087814	0.129156	5728.026855
7762.514391	0.087880	0.129156	5805.624512
7762.515328	0.087964	0.129156	5888.046875
7762.516242	0.087971	0.129156	5968.452637
7762.517164	0.087935	0.129156	6049.528320
7762.518051	0.087960	0.129156	6127.548828
7763.570121	0.991849	0.120306	432.446320
7763.571084	1.474164	0.120306	1852.066162
7763.571992	1.467594	0.120306	3184.641602
7763.572893	1.432698	0.120306	4475.502441
7763.573815	0.919127	0.120306	5322.937500
7763.574740	0.104253	0.120306	5419.371582
7763.575648	0.087656	0.120306	5498.963379
7763.576535	0.087843	0.120306	5576.880371
7763.577474	0.087825	0.120306	5659.347656
7763.578375	0.087905	0.120306	5738.550293
7763.579270	0.087927	0.120306	5817.245117
7763.580159	0.087850	0.120306	5895.344238
7763.581101	0.087949	0.120306	5978.192383
7763.582011	0.087777	0.120306	6058.069336
7763.582901	0.087843	0.120306	6136.249512
7764.576196	0.986411	0.128302	427.116028
7764.577142	1.470396	0.128302	1818.110352
7764.578072	1.467466	0.128302	3182.853516
7764.578984	1.432397	0.128302	4489.200195
7764.579890	0.927213	0.128302	5329.255371
7764.580837	0.103711	0.128302	5427.469727
7764.581749	0.087942	0.128302	5507.672852
7764.582652	0.087876	0.128302	5587.024902
7764.583539	0.087858	0.128302	5664.954590
7764.584492	0.088070	0.128302	5748.885254
7764.585397	0.087898	0.128302	5828.433105
7764.586292	0.087828	0.128302	5907.039551
7764.587234	0.088030	0.128302	5989.963379
7764.588141	0.088121	0.128302	6069.889648
7764.589046	0.087920	0.128302	6149.457031
7765.641696	1.008332	0.120431	453.749634
7765.642602	1.472428	0.120431	1787.769409
7765.643507	1.468938	0.120431	3117.158203
7765.644463	1.432467	0.120431	4486.596680
7765.645404	0.893350	0.120431	5327.238770
7765.646310	0.103546	0.120431	5421.051758
7765.647196	0.087847	0.120431	5498.883789
7765.648144	0.087971	0.120431	5582.280273
7765.649051	0.087924	0.120431	5662.026855
7765.649945	0.087920	0.120431	5740.627441
7765.650887	0.087993	0.120431	5823.517090
7765.651799	0.087975	0.120431	5903.750000
7765.652690	0.087975	0.120431	5982.135742
7765.653582	0.087883	0.120431	6060.527832
7765.654521	0.087924	0.120431	6143.087891
7766.647771	1.017070	0.127057	454.630463
7766.648699	1.473387	0.127057	1821.934082
7766.649606	1.468041	0.127057	3153.447021
7766.650544	1.432478	0.127057	4497.111328
7766.651468	0.910386	0.127057	5338.307617
7766.652366	0.105692	0.127057	5433.219238
7766.653253	0.087836	0.127057	5511.129395
7766.654201	0.088070	0.127057	5594.619629
7766.655108	0.087979	0.127057	5674.416016
7766.656002	0.087964	0.127057	5753.055664
7766.656927	0.087953	0.127057	5834.412109
7766.657841	0.088000	0.127057	5914.844727
7766.658752	0.087924	0.127057	5994.943359
7766.659647	0.087953	0.127057	6073.661133
7766.660582	0.088165	0.127057	6156.095703
7767.712731	1.004546	0.120942	452.045654
7767.713632	1.471831	0.120942	1778.165405
7767.714524	1.468784	0.120942	3088.320801
7767.715483	1.432548	0.120942	4462.133789
7767.716421	0.915370	0.120942	5320.750977
7767.717317	0.106886	0.120942	5416.520996
7767.718266	0.087755	0.120942	5499.800781
7767.719167	0.087806	0.120942	5578.914551
7767.720058	0.087839	0.120942	5657.179199
7767.720975	0.087832	0.120942	5737.721191
7767.721897	0.087847	0.120942	5818.715820
7767.722788	0.087814	0.120942	5896.958008
7767.723678	0.087858	0.120942	5975.151367
7767.724606	0.088022	0.120942	6056.836426
7767.725510	0.087803	0.120942	6136.209961
7768.719301	0.991183	0.127988	430.173370
7768.720263	1.472219	0.127988	1846.448242
7768.721180	1.467147	0.127988	3191.822266
7768.722090	1.432368	0.127988	4495.277344
7768.722991	0.935222	0.127988	5337.912598
7768.723938	0.103469	0.127988	5435.897949
7768.724852	0.087953	0.127988	5516.287109
7768.725741	0.087986	0.127988	5594.506348
7768.726660	0.087964	0.127988	5675.345215
7768.727578	0.087946	0.127988	5756.079102
7768.728491	0.087924	0.127988	5836.353516
7768.729390	0.087942	0.127988	5915.413086
7768.730319	0.087949	0.127988	5997.117676
7768.731232	0.087869	0.127988	6077.341797
7768.732136	0.087858	0.127988	6156.765137
7769.784791	1.005835	0.121957	450.614044
7769.785693	1.471758	0.121957	1778.139526
7769.786634	1.468345	0.121957	3159.852051
7769.787547	1.433320	0.121957	4468.473633
7769.788476	0.947417	0.121957	5348.624023
7769.789368	0.110936	0.121957	5447.579102
7769.790299	0.087997	0.121957	5529.503906
7769.791205	0.087957	0.121957	5609.192383
7769.792104	0.087942	0.121957	5688.251953
7769.792991	0.087957	0.121957	5766.269531
7769.793938	0.087894	0.121957	5849.505371
7769.794841	0.087773	0.121957	5928.764648
7769.795738	0.087872	0.121957	6007.585937
7769.796658	0.088066	0.121957	6088.606934
7769.797565	0.087916	0.121957	6168.347168
7770.790881	1.019579	0.128129	459.830048
7770.791782	1.471732	0.128129	1785.860840
7770.792678	1.469432	0.128129	3102.472168
7770.793636	1.432950	0.128129	4475.238770
7770.794547	0.942030	0.128129	5333.428223
7770.795441	0.109347	0.128129	5431.184570
7770.796334	0.087715	0.128129	5509.514160
7770.797284	0.087942	0.128129	5593.059082
7770.798199	0.087825	0.128129	5673.418457
7770.799097	0.087806	0.128129	5752.268555
7770.800023	0.087806	0.128129	5833.577148
7770.800927	0.087920	0.128129	5913.056641
7770.801828	0.087891	0.128129	5992.246094
7770.802719	0.087953	0.128129	6070.612305
7770.803670	0.087865	0.128129	6154.171875
7771.856382	1.017913	0.120725	497.759277
7771.857309	1.475420	0.120725	1865.473511
7771.858235	1.466158	0.120725	3223.136230
7771.859132	1.431420	0.120725	4507.119629
7771.860098	0.836825	0.120725	5315.492676
7771.860995	0.099822	0.120725	5405.032715
7771.861897	0.087744	0.120725	5484.177734
7771.862785	0.087795	0.120725	5562.140137
7771.863739	0.087891	0.120725	5645.987793
7771.864645	0.087880	0.120725	5725.606934
7771.865541	0.087957	0.120725	5804.416016
7771.866474	0.087942	0.120725	5886.465820
7771.867378	0.087887	0.120725	5965.915527
7771.868274	0.087832	0.120725	6044.612793
7771.869159	0.087861	0.120725	6122.370117
7772.861910	1.006846	0.128350	449.053192
7772.862818	1.472058	0.128350	1785.681885
7772.863712	1.469542	0.128350	3099.452637
7772.864679	1.432782	0.128350	4484.952637
7772.865605	0.909159	0.128350	5326.833984
7772.866522	0.104744	0.128350	5422.883789
7772.867408	0.087777	0.128350	5500.654297
7772.868354	0.087880	0.128350	5583.788574
7772.869267	0.087781	0.128350	5663.932617
7772.870166	0.087788	0.128350	5742.854004
7772.871113	0.087872	0.128350	5826.069336
7772.872016	0.087876	0.128350	5905.421387
7772.872937	0.087872	0.128350	5986.351562
7772.873835	0.087942	0.128350	6065.323242
7772.874792	0.087902	0.128350	6149.445312
7773.927382	1.005326	0.121414	446.364716
7773.928280	1.470688	0.121414	1767.042969
7773.929174	1.469703	0.121414	3080.957764
7773.930142	1.433284	0.121414	4468.376465
7773.931067	0.934808	0.121414	5333.074219
7773.931955	0.109442	0.121414	5430.258789
7773.932886	0.087770	0.121414	5511.972656
7773.933787	0.087979	0.121414	5591.241211
7773.934696	0.087795	0.121414	5671.047363
7773.935592	0.087810	0.121414	5749.725098
7773.936528	0.087931	0.121414	5832.028320
7773.937435	0.087913	0.121414	5911.765137
7773.938335	0.087777	0.121414	5990.764648
7773.939223	0.088033	0.121414	6068.938477
7773.940174	0.087935	0.121414	6152.564453
7774.933464	1.008336	0.127577	447.701263
7774.934385	1.472260	0.127577	1803.652344
7774.935283	1.468704	0.127577	3122.548340
7774.936237	1.433210	0.127577	4489.831055
7774.937151	0.927173	0.127577	5337.267090
7774.938043	0.107919	0.127577	5433.530762
7774.938934	0.087869	0.127577	5511.821777
7774.939876	0.087975	0.127577	5594.694336
7774.940780	0.087854	0.127577	5674.114258
7774.941683	0.087894	0.127577	5753.482910
7774.942569	0.087993	0.127577	5831.444824
7774.943516	0.088121	0.127577	5914.895508
7774.944425	0.087913	0.127577	5994.808105
7774.945312	0.087887	0.127577	6072.763672
7774.946247	0.087986	0.127577	6155.030273
7775.998445	1.012592	0.120322	478.955841
7775.999358	1.473951	0.120322	1824.673462
7776.000252	1.468257	0.120322	3137.294922
7776.001228	1.431050	0.120322	4533.999512
7776.002160	0.851708	0.120322	5327.791016
7776.003043	0.102107	0.120322	5417.951660
7776.004002	0.087854	0.120322	5502.203613
7776.004913	0.087887	0.120322	5582.268555
7776.005830	0.087942	0.120322	5662.911133
7776.006723	0.087891	0.120322	5741.397461
7776.007662	0.087924	0.120322	5823.957520
7776.008573	0.087843	0.120322	5903.982422
7776.009488	0.088000	0.120322	5984.502930
7776.010385	0.087927	0.120322	6063.373535
7776.011338	0.087924	0.120322	6147.164551
7777.005003	0.993289	0.128439	434.067078
7777.005966	1.471348	0.128439	1850.974854
7777.006886	1.467323	0.128439	3200.912109
7777.007785	1.432159	0.128439	4488.423340
7777.008691	0.937504	0.128439	5337.801758
7777.009638	0.102634	0.128439	5434.996582
7777.010546	0.087898	0.128439	5514.808105
7777.011448	0.087788	0.128439	5593.993164
7777.012335	0.087979	0.128439	5672.030273
7777.013294	0.087916	0.128439	5756.341797
7777.014199	0.087953	0.128439	5835.938965
7777.015094	0.087949	0.128439	5914.653320
7777.016035	0.087850	0.128439	5997.320312
7777.016932	0.088088	0.128439	6076.335449
7777.017828	0.087887	0.128439	6155.082031
7778.069974	1.011789	0.120584	452.269867
7778.070889	1.472677	0.120584	1799.769287
7778.071794	1.468663	0.120584	3128.909668
7778.072740	1.433020	0.120584	4484.546875
7778.073653	0.931190	0.120584	5334.723633
7778.074550	0.108278	0.120584	5431.848633
7778.075435	0.087708	0.120584	5509.469727
7778.076373	0.087990	0.120584	5592.003906
7778.077285	0.087887	0.120584	5672.156738
7778.078178	0.087850	0.120584	5750.606934
7778.079106	0.087986	0.120584	5832.257812
7778.080020	0.087993	0.120584	5912.683594
7778.080925	0.087880	0.120584	5992.214844
7778.081824	0.087832	0.120584	6071.175781
7778.082770	0.087891	0.120584	6154.320312
7779.076577	1.012592	0.128165	456.678802
7779.077494	1.472959	0.128165	1807.382202
7779.078400	1.468733	0.128165	3138.054199
7779.079293	1.433357	0.128165	4418.041992
7779.080264	0.913015	0.128165	5304.579590
7779.081171	0.105289	0.128165	5400.077148
7779.082058	0.087708	0.128165	5477.873535
7779.082980	0.087788	0.128165	5558.813965
7779.083895	0.087817	0.128165	5639.166992
7779.084791	0.087894	0.128165	5717.920410
7779.085682	0.087832	0.128165	5796.178711
7779.086628	0.087920	0.128165	5879.351074
7779.087531	0.087806	0.128165	5958.640137
7779.088431	0.087843	0.128165	6037.698730
7779.089317	0.087803	0.128165	6115.492187
7780.141511	0.992216	0.119798	432.605988
7780.142463	1.471718	0.119798	1833.681152
7780.143373	1.467865	0.119798	3169.438232
7780.144276	1.432943	0.119798	4463.385742
7780.145173	0.964999	0.119798	5328.989746
7780.146115	0.106285	0.119798	5429.110352
7780.147010	0.087759	0.119798	5507.654297
7780.147914	0.087869	0.119798	5587.087402
7780.148820	0.087891	0.119798	5666.716309
7780.149746	0.088015	0.119798	5748.218262
7780.150652	0.087883	0.119798	5827.840332
7780.151548	0.087909	0.119798	5906.606934
7780.152491	0.087931	0.119798	5989.525879
7780.153398	0.087814	0.119798	6069.172852
7780.154292	0.087887	0.119798	6147.743652
7781.148103	0.988004	0.127726	426.817780
7781.149050	1.471999	0.127726	1820.801147
7781.149970	1.467671	0.127726	3171.058105
7781.150884	1.432617	0.127726	4480.470215
7781.151785	0.945582	0.127726	5332.439941
7781.152735	0.103835	0.127726	5431.083496
7781.153638	0.087828	0.127726	5510.392578
7781.154526	0.087902	0.127726	5588.449219
7781.155444	0.087931	0.127726	5669.169922
7781.156355	0.087993	0.127726	5749.331543
7781.157263	0.087938	0.127726	5829.179687
7781.158158	0.087825	0.127726	5907.782715
7781.159093	0.087993	0.127726	5990.056152
7781.159997	0.087953	0.127726	6069.565430
7781.160903	0.087979	0.127726	6149.273926
7782.213090	1.017246	0.120060	458.778015
7782.213994	1.471696	0.120060	1789.190674
7782.214890	1.469125	0.120060	3105.526367
7782.215844	1.432701	0.120060	4472.323730
7782.216765	0.925137	0.120060	5324.374512
7782.217671	0.106267	0.120060	5420.652344
7782.218562	0.087781	0.120060	5498.865234
7782.219512	0.087953	0.120060	5582.420410
7782.220419	0.087850	0.120060	5662.100586
7782.221322	0.087953	0.120060	5741.521973
7782.222249	0.088063	0.120060	5823.156250
7782.223153	0.087982	0.120060	5902.692383
7782.224053	0.087869	0.120060	5981.774414
7782.224940	0.087902	0.120060	6059.743164
7782.225871	0.088026	0.120060	6141.695312
7783.219663	0.998906	0.128209	439.518738
7783.220560	1.470894	0.128209	1758.910156
7783.221452	1.470073	0.128209	3070.215332
7783.222427	1.433372	0.128209	4467.752441
7783.223340	0.940375	0.128209	5326.314453
7783.224237	0.109189	0.128209	5424.257324
7783.225124	0.087891	0.128209	5502.216309
7783.226049	0.087997	0.128209	5583.613281
7783.226959	0.087876	0.128209	5663.580566
7783.227854	0.087913	0.128209	5742.262207
7783.228780	0.088081	0.128209	5823.825195
7783.229691	0.088030	0.128209	5904.020508
7783.230595	0.087905	0.128209	5983.486816
7783.231485	0.087931	0.128209	6061.745117
7783.232430	0.087935	0.128209	6144.843262
7784.284128	1.016078	0.121148	457.235046
7784.285029	1.471970	0.121148	1783.480225
7784.285936	1.468546	0.121148	3115.451660
7784.286892	1.432826	0.121148	4485.233398
7784.287793	0.945154	0.121148	5336.816895
7784.288680	0.110490	0.121148	5434.821289
7784.289616	0.087733	0.121148	5516.939453
7784.290527	0.087806	0.121148	5596.931152
7784.291441	0.087913	0.121148	5677.283203
7784.292339	0.087869	0.121148	5756.189453
7784.293290	0.087839	0.121148	5839.724609
7784.294190	0.087832	0.121148	5918.773437
7784.295080	0.087902	0.121148	5997.005859
7784.295999	0.087960	0.121148	6077.841309
7784.296920	0.087777	0.121148	6158.684082
7785.291214	0.995709	0.127069	438.112061
7785.292196	1.475500	0.127069	1887.053467
7785.293098	1.466536	0.127069	3209.868652
7785.294007	1.431669	0.127069	4511.255371
7785.294911	0.896030	0.127069	5321.266602
7785.295850	0.101847	0.127069	5416.900879
7785.296764	0.087843	0.127069	5497.189453
7785.297662	0.087909	0.127069	5576.131836
7785.298593	0.087960	0.127069	5658.022949
7785.299494	0.088008	0.127069	5737.317871
7785.300400	0.087876	0.127069	5816.933594
7785.301287	0.087986	0.127069	5894.977051
7785.302236	0.088019	0.127069	5978.506836
7785.303144	0.087920	0.127069	6058.337891
7785.304038	0.087990	0.127069	6137.000488
7786.355682	1.010387	0.120765	454.674133
7786.356604	1.472706	0.120765	1812.509277
7786.357500	1.468458	0.120765	3128.248047
7786.358443	1.432932	0.120765	4479.502930
7786.359365	0.922112	0.120765	5329.689941
7786.360266	0.106692	0.120765	5425.819336
7786.361152	0.087693	0.120765	5503.515137
7786.362097	0.088033	0.120765	5586.706543
7786.363002	0.087883	0.120765	5666.240723
7786.363905	0.087880	0.120765	5745.596191
7786.364789	0.087872	0.120765	5823.275391
7786.365733	0.087931	0.120765	5906.282227
7786.366636	0.087883	0.120765	5985.640625
7786.367523	0.087887	0.120765	6063.596191
7786.368453	0.087869	0.120765	6145.313965
7787.362251	1.011222	0.128556	443.926453
7787.363244	1.476083	0.128556	1909.676758
7787.364157	1.466268	0.128556	3248.379883
7787.365054	1.431196	0.128556	4532.163086
7787.366003	0.847526	0.128556	5336.464844
7787.366902	0.101210	0.128556	5427.452148
7787.367827	0.087810	0.128556	5508.676270
7787.368713	0.087949	0.128556	5586.599121
7787.369651	0.087905	0.128556	5669.054199
7787.370550	0.087843	0.128556	5748.024902
7787.371439	0.087883	0.128556	5826.153320
7787.372363	0.087916	0.128556	5907.388184
7787.373290	0.087832	0.128556	5988.808594
7787.374195	0.087905	0.128556	6068.362793
7787.375086	0.087949	0.128556	6146.725586
7788.427205	0.991718	0.120906	430.405426
7788.428172	1.470996	0.120906	1852.858521
7788.429092	1.467136	0.120906	3202.624023
7788.430003	1.432269	0.120906	4507.421387
7788.430901	0.927726	0.120906	5340.519043
7788.431862	0.101320	0.120906	5437.887207
7788.432756	0.087828	0.120906	5516.405762
7788.433654	0.087953	0.120906	5595.387207
7788.434539	0.087931	0.120906	5673.206055
7788.435483	0.087931	0.120906	5756.212891
7788.436387	0.087836	0.120906	5835.616211
7788.437284	0.087854	0.120906	5914.421387
7788.438216	0.087993	0.120906	5996.431152
7788.439122	0.087975	0.120906	6076.136230
7788.440023	0.087821	0.120906	6155.263184
7789.433804	0.994186	0.128713	436.447540
7789.434759	1.471674	0.128713	1841.895752
7789.435670	1.467418	0.128713	3178.713867
7789.436576	1.432643	0.128713	4476.688477
7789.437477	0.950801	0.128713	5333.359863
7789.438418	0.104524	0.128713	5431.716797
7789.439321	0.087803	0.128713	5511.002441
7789.440225	0.087847	0.128713	5590.416016
7789.441113	0.087832	0.128713	5668.410645
7789.442057	0.087946	0.128713	5751.431152
7789.442963	0.087836	0.128713	5831.010254
7789.443852	0.087883	0.128713	5909.138672
7789.444777	0.087971	0.128713	5990.512207
7789.445690	0.087927	0.128713	6070.789551
7789.446589	0.087843	0.128713	6149.760254
7790.498313	1.061466	0.120946	527.548645
7790.499221	1.474962	0.120946	1866.814209
7790.500121	1.467396	0.120946	3187.470703
7790.501020	1.431991	0.120946	4474.830566
7790.501987	0.875511	0.120946	5321.450195
7790.502894	0.102184	0.120946	5414.130859
7790.503795	0.087697	0.120946	5493.145508
7790.504720	0.087869	0.120946	5574.423828
7790.505624	0.087854	0.120946	5653.843750
7790.506521	0.087817	0.120946	5732.615723
7790.507408	0.087803	0.120946	5810.496582
7790.508371	0.087836	0.120946	5895.082520
7790.509264	0.087861	0.120946	5973.542480
7790.510168	0.087905	0.120946	6053.008789
7790.511060	0.087817	0.120946	6131.341797
7791.505373	1.023351	0.126650	466.647980
7791.506292	1.473073	0.126650	1820.401611
7791.507193	1.468341	0.126650	3143.376953
7791.508140	1.432240	0.126650	4499.708008
7791.509068	0.902076	0.126650	5336.834961
7791.509980	0.103535	0.126650	5431.258789
7791.510867	0.087836	0.126650	5509.168945
7791.511822	0.088048	0.126650	5593.254883
7791.512724	0.087847	0.126650	5672.492676
7791.513621	0.087979	0.126650	5751.409180
7791.514562	0.087960	0.126650	5834.179687
7791.515460	0.088037	0.126650	5913.236816
7791.516362	0.087858	0.126650	5992.484375
7791.517250	0.087894	0.126650	6070.534668
7791.518189	0.087990	0.126650	6153.156738
7792.569325	1.021523	0.121647	469.900787
7792.570234	1.472505	0.121647	1808.407715
7792.571130	1.468246	0.121647	3123.956055
7792.572070	1.432844	0.121647	4470.829590
7792.572997	0.916864	0.121647	5320.762695
7792.573918	0.104106	0.121647	5416.644531
7792.574815	0.087766	0.121647	5495.370605
7792.575754	0.087825	0.121647	5577.837891
7792.576660	0.087751	0.121647	5657.340820
7792.577549	0.087788	0.121647	5735.384277
7792.578454	0.087832	0.121647	5814.872070
7792.579387	0.087854	0.121647	5896.839844
7792.580280	0.087729	0.121647	5975.182129
7792.581165	0.087726	0.121647	6052.819336
7792.582100	0.087935	0.121647	6135.038086
7793.577424	1.003154	0.127641	442.391022
7793.578387	1.474244	0.127641	1862.088257
7793.579302	1.466861	0.127641	3204.266602
7793.580210	1.431892	0.127641	4504.424805
7793.581163	0.869048	0.127641	5332.627441
7793.582072	0.101422	0.127641	5424.820312
7793.582972	0.087788	0.127641	5503.829590
7793.583860	0.087762	0.127641	5581.762695
7793.584813	0.087913	0.127641	5665.543457
7793.585717	0.087938	0.127641	5745.039551
7793.586606	0.087821	0.127641	5823.112305
7793.587520	0.087872	0.127641	5903.427734
7793.588434	0.087953	0.127641	5983.816895
7793.589331	0.087861	0.127641	6062.628418
7793.590226	0.087865	0.127641	6141.267578
7794.641879	1.010610	0.120729	452.753418
7794.642776	1.471172	0.120729	1772.394653
7794.643669	1.469429	0.120729	3084.594727
7794.644629	1.433159	0.120729	4460.427734
7794.645555	0.937753	0.120729	5328.786621
7794.646459	0.107498	0.120729	5425.964355
7794.647353	0.087660	0.120729	5504.332520
7794.648297	0.087865	0.120729	5587.276855
7794.649211	0.087762	0.120729	5667.491699
7794.650104	0.087869	0.120729	5745.958496
7794.651052	0.087792	0.120729	5829.185059
7794.651948	0.087854	0.120729	5907.902344
7794.652852	0.087825	0.120729	5987.295898
7794.653739	0.087821	0.120729	6065.193359
7794.654686	0.087905	0.120729	6148.439453
7795.646921	0.997507	0.127319	435.910706
7795.647881	1.474592	0.127319	1851.519287
7795.648809	1.466642	0.127319	3212.562988
7795.649715	1.431617	0.127319	4509.608398
7795.650652	0.885747	0.127319	5339.553223
7795.651559	0.101986	0.127319	5432.054687
7795.652464	0.087751	0.127319	5511.469727
7795.653353	0.087894	0.127319	5589.607910
7795.654294	0.087935	0.127319	5672.354492
7795.655195	0.087898	0.127319	5751.550781
7795.656094	0.087843	0.127319	5830.521484
7795.656982	0.087968	0.127319	5908.636719
7795.657929	0.088015	0.127319	5991.986816
7795.658837	0.087920	0.127319	6071.817871
7795.659735	0.087773	0.127319	6150.638184
7796.712906	0.992981	0.119891	432.939697
7796.713800	1.470458	0.119891	1747.528931
7796.714763	1.467795	0.119891	3161.015869
7796.715683	1.432211	0.119891	4478.649414
7796.716596	0.930674	0.119891	5328.354492
7796.717532	0.105703	0.119891	5427.292480
7796.718443	0.087817	0.119891	5507.293945
7796.719347	0.087916	0.119891	5586.770020
7796.720233	0.087880	0.119891	5664.631348
7796.721178	0.087964	0.119891	5747.757324
7796.722080	0.087843	0.119891	5826.991699
7796.722973	0.087850	0.119891	5905.441895
7796.723895	0.087905	0.119891	5986.490723
7796.724799	0.087924	0.119891	6065.973633
7796.725709	0.087858	0.119891	6145.924316
7797.719524	1.014364	0.127851	462.549988
7797.720424	1.472329	0.127851	1787.646240
7797.721357	1.468066	0.127851	3157.352295
7797.722282	1.432687	0.127851	4482.587402
7797.723183	0.939221	0.127851	5328.825684
7797.724071	0.110013	0.127851	5426.517578
7797.725004	0.087803	0.127851	5508.437500
7797.725908	0.087865	0.127851	5587.867676
7797.726826	0.087825	0.127851	5668.490723
7797.727716	0.087854	0.127851	5746.680664
7797.728677	0.087876	0.127851	5831.129395
7797.729583	0.087836	0.127851	5910.708496
7797.730476	0.087891	0.127851	5989.194824
7797.731411	0.087876	0.127851	6071.358887
7797.732321	0.087770	0.127851	6151.229492
7798.784002	1.049319	0.119895	522.560791
7798.784914	1.474720	0.119895	1867.505859
7798.785822	1.467144	0.119895	3199.672363
7798.786715	1.432386	0.119895	4478.793457
7798.787672	0.885721	0.119895	5326.428711
7798.788569	0.103993	0.119895	5419.710449
7798.789465	0.087773	0.119895	5498.355469
7798.790384	0.087891	0.119895	5579.126953
7798.791293	0.087971	0.119895	5659.092773
7798.792202	0.087861	0.119895	5738.958496
7798.793100	0.087898	0.119895	5817.890625
7798.794037	0.087990	0.119895	5900.336914
7798.794938	0.087957	0.119895	5979.585937
7798.795835	0.087814	0.119895	6058.354980
7798.796721	0.087931	0.119895	6136.261719
7799.791073	1.010596	0.128846	451.736267
7799.791993	1.472351	0.128846	1806.299316
7799.792887	1.468542	0.128846	3119.176270
7799.793829	1.432881	0.128846	4468.950195
7799.794756	0.922723	0.128846	5324.314941
7799.795658	0.106776	0.128846	5420.626953
7799.796547	0.087773	0.128846	5498.657715
7799.797500	0.087924	0.128846	5582.448730
7799.798411	0.087913	0.128846	5662.537109
7799.799304	0.087839	0.128846	5740.977539
7799.800208	0.087946	0.128846	5820.480469
7799.801142	0.087916	0.128846	5902.594238
7799.802047	0.087843	0.128846	5982.092285
7799.802935	0.087887	0.128846	6060.135742
7799.803861	0.087913	0.128846	6141.542969
7800.855520	1.006077	0.121184	453.740601
7800.856419	1.471934	0.121184	1777.008911
7800.857363	1.467887	0.121184	3162.694336
7800.858291	1.432137	0.121184	4491.717773
7800.859207	0.910518	0.121184	5325.751953
7800.860099	0.106469	0.121184	5420.721680
7800.861040	0.088033	0.121184	5503.561035
7800.861962	0.087839	0.121184	5584.548828
7800.862860	0.087817	0.121184	5663.408691
7800.863745	0.087957	0.121184	5741.250000
7800.864713	0.087924	0.121184	5826.359863
7800.865616	0.087843	0.121184	5905.682129
7800.866508	0.087964	0.121184	5984.145996
7800.867447	0.087946	0.121184	6066.727051
7800.868352	0.087960	0.121184	6146.331055
7801.862602	0.995002	0.126614	435.811066
7801.863560	1.471710	0.126614	1845.709473
7801.864475	1.467067	0.126614	3188.075439
7801.865387	1.432211	0.126614	4494.251465
7801.866284	0.939518	0.126614	5336.999023
7801.867212	0.104594	0.126614	5434.062012
7801.868116	0.087795	0.126614	5513.429199
7801.869027	0.087898	0.126614	5593.504395
7801.869928	0.087865	0.126614	5672.670898
7801.870880	0.088033	0.126614	5756.478516
7801.871793	0.087781	0.126614	5836.622559
7801.872687	0.087891	0.126614	5915.196777
7801.873619	0.087957	0.126614	5997.172363
7801.874529	0.087850	0.126614	6077.116211
7801.875429	0.087814	0.126614	6156.148437
7802.926561	1.021227	0.119718	462.615723
7802.927458	1.471945	0.119718	1782.949951
7802.928413	1.467623	0.119718	3184.530273
7802.929335	1.432016	0.119718	4504.849609
7802.930274	0.883433	0.119718	5334.392578
7802.931162	0.103817	0.119718	5426.582031
7802.932101	0.087777	0.119718	5509.004883
7802.933021	0.087832	0.119718	5589.810547
7802.933915	0.087905	0.119718	5668.397949
7802.934849	0.087799	0.119718	5750.402344
7802.935761	0.087832	0.119718	5830.505371
7802.936689	0.087858	0.119718	5912.037109
7802.937581	0.087957	0.119718	5990.494141
7802.938529	0.087869	0.119718	6073.793457
7802.939445	0.087806	0.119718	6154.224121
7803.934678	1.003546	0.128056	449.588654
7803.935578	1.471666	0.128056	1774.088257
7803.936514	1.468568	0.128056	3148.667969
7803.937434	1.433009	0.128056	4467.036133
7803.938347	0.938925	0.128056	5324.274414
7803.939246	0.109175	0.128056	5422.422363
7803.940194	0.087792	0.128056	5505.648926
7803.941103	0.087960	0.128056	5585.604980
7803.942002	0.087770	0.128056	5664.509766
7803.942891	0.087799	0.128056	5742.562988
7803.943841	0.088008	0.128056	5826.170410
7803.944748	0.087795	0.128056	5905.800781
7803.945640	0.087924	0.128056	5984.228516
7803.946579	0.087902	0.128056	6066.768066
7803.947482	0.088019	0.128056	6146.249023
7804.998119	1.025120	0.119597	472.580109
7804.999019	1.472703	0.119597	1798.012451
7804.999967	1.467792	0.119597	3189.479004
7805.000864	1.432555	0.119597	4474.480957
7805.001779	0.934702	0.119597	5329.733398
7805.002670	0.109215	0.119597	5427.043945
7805.003615	0.087927	0.119597	5510.135254
7805.004522	0.087828	0.119597	5589.795410
7805.005426	0.087883	0.119597	5669.241699
7805.006320	0.087949	0.119597	5747.868164
7805.007263	0.087968	0.119597	5830.821777
7805.008167	0.087832	0.119597	5910.222168
7805.009058	0.087865	0.119597	5988.509766
7805.009983	0.087942	0.119597	6069.855957
7805.010892	0.087916	0.119597	6149.771973
7806.006223	0.996127	0.129422	442.280273
7806.007187	1.474720	0.129422	1863.910767
7806.008105	1.466601	0.129422	3210.250977
7806.009007	1.431885	0.129422	4501.811035
7806.009909	0.903073	0.129422	5316.382324
7806.010862	0.101243	0.129422	5412.866699
7806.011760	0.087638	0.129422	5491.565430
7806.012648	0.087828	0.129422	5569.557129
7806.013567	0.087858	0.129422	5650.298340
7806.014474	0.087850	0.129422	5729.978516
7806.015372	0.087711	0.129422	5808.743164
7806.016259	0.087744	0.129422	5886.572266
7806.017201	0.087880	0.129422	5969.354980
7806.018104	0.087843	0.129422	6048.677246
7806.019003	0.087872	0.129422	6127.674316
7807.069708	1.035022	0.119065	519.581055
7807.070618	1.475519	0.119065	1862.303223
7807.071524	1.466627	0.119065	3191.067383
7807.072423	1.432035	0.119065	4478.466797
7807.073378	0.878478	0.119065	5317.413086
7807.074278	0.102598	0.119065	5409.750977
7807.075180	0.087803	0.119065	5488.949219
7807.076069	0.087905	0.119065	5567.097168
7807.077016	0.087924	0.119065	5650.360840
7807.077929	0.087894	0.119065	5730.608398
7807.078822	0.087920	0.119065	5809.121094
7807.079762	0.087872	0.119065	5891.721191
7807.080658	0.087876	0.119065	5970.458008
7807.081563	0.087880	0.119065	6049.989258
7807.082454	0.087949	0.119065	6128.352051
7808.077785	1.012610	0.127263	458.712250
7808.078688	1.472102	0.127263	1788.020386
7808.079636	1.467792	0.127263	3179.486816
7808.080553	1.432273	0.127263	4492.880859
7808.081466	0.924961	0.127263	5337.370117
7808.082352	0.108721	0.127263	5433.696777
7808.083306	0.087832	0.127263	5517.488770
7808.084213	0.087883	0.127263	5597.198730
7808.085108	0.087803	0.127263	5675.782227
7808.085997	0.087869	0.127263	5753.897461
7808.086933	0.087916	0.127263	5836.187012
7808.087845	0.087828	0.127263	5916.286621
7808.088746	0.087924	0.127263	5995.505859
7808.089671	0.087982	0.127263	6076.889160
7808.090577	0.087964	0.127263	6156.584473
7809.140701	1.012852	0.120104	454.770355
7809.141600	1.471392	0.120104	1777.551392
7809.142491	1.468678	0.120104	3086.143555
7809.143441	1.433214	0.120104	4447.696777
7809.144369	0.946589	0.120104	5326.131836
7809.145261	0.110120	0.120104	5424.358398
7809.146198	0.087784	0.120104	5506.612305
7809.147104	0.087927	0.120104	5586.274414
7809.148004	0.087891	0.120104	5665.375977
7809.148891	0.087825	0.120104	5743.276367
7809.149841	0.087960	0.120104	5826.838379
7809.150741	0.087924	0.120104	5905.969727
7809.151642	0.087733	0.120104	5985.017090
7809.152529	0.087806	0.120104	6062.901367
7809.153457	0.087887	0.120104	6144.460449
7810.148812	1.000580	0.126965	440.255127
7810.149796	1.475321	0.126965	1891.971069
7810.150711	1.465961	0.126965	3233.325195
7810.151611	1.431130	0.126965	4521.342773
7810.152541	0.873051	0.126965	5333.279785
7810.153463	0.100206	0.126965	5425.669922
7810.154371	0.087821	0.126965	5505.411621
7810.155268	0.087891	0.126965	5584.249512
7810.156189	0.087891	0.126965	5665.196777
7810.157090	0.087872	0.126965	5744.369629
7810.157990	0.087810	0.126965	5823.398437
7810.158877	0.087858	0.126965	5901.328125
7810.159830	0.087935	0.126965	5985.129883
7810.160727	0.087850	0.126965	6063.931641
7810.161624	0.087872	0.126965	6142.752930
7811.212233	0.997712	0.118839	438.993439
7811.213130	1.470593	0.118839	1758.115479
7811.214116	1.466796	0.118839	3204.375977
7811.215026	1.431412	0.118839	4506.960937
7811.215931	0.917802	0.118839	5337.571289
7811.216861	0.106066	0.118839	5436.212402
7811.217772	0.087814	0.118839	5516.210937
7811.218686	0.087850	0.118839	5596.506348
7811.219574	0.087839	0.118839	5674.507812
7811.220526	0.087931	0.118839	5758.218262
7811.221426	0.087865	0.118839	5837.296875
7811.222343	0.087814	0.118839	5917.822266
7811.223254	0.087825	0.118839	5997.830566
7811.224210	0.087792	0.118839	6081.759277
7811.225105	0.087828	0.118839	6160.365723
7812.220376	1.015895	0.128064	453.089081
7812.221284	1.472194	0.128064	1789.840942
7812.222178	1.468341	0.128064	3102.537842
7812.223150	1.432456	0.128064	4494.885254
7812.224076	0.906654	0.128064	5334.446777
7812.224967	0.105751	0.128064	5428.670898
7812.225897	0.087810	0.128064	5510.334473
7812.226801	0.087762	0.128064	5589.671875
7812.227700	0.087931	0.128064	5668.721680
7812.228588	0.087880	0.128064	5746.758789
7812.229517	0.087946	0.128064	5828.460449
7812.230424	0.087788	0.128064	5908.084473
7812.231328	0.087894	0.128064	5987.541016
7812.232217	0.087708	0.128064	6065.513184
7812.233161	0.087935	0.128064	6148.523437
7813.283797	1.009244	0.118255	454.159943
7813.284705	1.472201	0.118255	1790.918335
7813.285652	1.467821	0.118255	3180.944824
7813.286564	1.432324	0.118255	4487.224609
7813.287477	0.932629	0.118255	5338.715332
7813.288362	0.109537	0.118255	5435.655762
7813.289319	0.087810	0.118255	5519.689941
7813.290218	0.087949	0.118255	5598.756348
7813.291116	0.087854	0.118255	5677.649414
7813.292003	0.087858	0.118255	5755.579102
7813.292959	0.087949	0.118255	5839.658691
7813.293872	0.087898	0.118255	5919.909668
7813.294775	0.087946	0.118255	5999.324707
7813.295698	0.087880	0.118255	6080.437500
7813.296598	0.088000	0.118255	6159.637695
7814.291910	0.986829	0.128105	426.309937
7814.292853	1.471981	0.128105	1814.388306
7814.293777	1.467422	0.128105	3170.286133
7814.294688	1.432884	0.128105	4475.644043
7814.295592	0.937954	0.128105	5323.554687
7814.296556	0.102968	0.128105	5422.815430
7814.297451	0.087693	0.128105	5501.300781
7814.298338	0.087836	0.128105	5579.210937
7814.299265	0.087751	0.128105	5660.556641
7814.300183	0.087799	0.128105	5741.156250
7814.301085	0.087708	0.128105	5820.268555
7814.301975	0.087828	0.128105	5898.436035
7814.302903	0.087968	0.128105	5980.069824
7814.303815	0.087792	0.128105	6060.135742
7814.304708	0.087744	0.128105	6138.491211
7815.354826	0.993571	0.120410	439.158173
7815.355788	1.474237	0.120410	1857.374146
7815.356709	1.466631	0.120410	3208.141113
7815.357621	1.431654	0.120410	4513.809570
7815.358521	0.895800	0.120410	5320.029297
7815.359473	0.100444	0.120410	5415.652344
7815.360376	0.087719	0.120410	5494.862305
7815.361271	0.087704	0.120410	5573.357422
7815.362210	0.087898	0.120410	5655.893555
7815.363107	0.087876	0.120410	5734.718262
7815.364003	0.087788	0.120410	5813.376465
7815.364897	0.087795	0.120410	5891.865723
7815.365829	0.087869	0.120410	5973.759277
7815.366728	0.087847	0.120410	6052.733398
7815.367628	0.087891	0.120410	6131.834961
7816.363476	1.000836	0.127629	445.372131
7816.364371	1.470971	0.127629	1761.890625
7816.365317	1.468447	0.127629	3151.041504
7816.366227	1.433057	0.127629	4455.123047
7816.367158	0.932673	0.127629	5323.441895
7816.368056	0.108051	0.127629	5420.471191
7816.368991	0.087726	0.127629	5502.494629
7816.369900	0.087832	0.127629	5582.333984
7816.370800	0.087861	0.127629	5661.409180
7816.371685	0.087843	0.127629	5739.150391
7816.372624	0.087975	0.127629	5821.758789
7816.373534	0.087883	0.127629	5901.732422
7816.374432	0.087795	0.127629	5980.572754
7816.375371	0.087920	0.127629	6063.129395
7816.376274	0.087894	0.127629	6142.498047
7817.426904	1.008889	0.119625	456.017853
7817.427799	1.471520	0.119625	1773.028076
7817.428746	1.467836	0.119625	3163.068359
7817.429666	1.432482	0.119625	4480.951172
7817.430576	0.935614	0.119625	5332.359863
7817.431465	0.109285	0.119625	5429.514160
7817.432433	0.087946	0.119625	5514.645508
7817.433344	0.087894	0.119625	5594.717285
7817.434244	0.087887	0.119625	5673.815430
7817.435171	0.087817	0.119625	5755.222168
7817.436087	0.087858	0.119625	5835.699707
7817.436993	0.087887	0.119625	5915.325195
7817.437882	0.087872	0.119625	5993.443848
7817.438809	0.087913	0.119625	6074.938965
7817.439716	0.087828	0.119625	6154.599121
7818.434505	0.997412	0.127657	436.866486
7818.435487	1.474907	0.127657	1885.225342
7818.436394	1.466375	0.127657	3215.227051
7818.437298	1.431727	0.127657	4509.508789
7818.438199	0.903278	0.127657	5323.361816
7818.439152	0.101807	0.127657	5420.383789
7818.440053	0.087777	0.127657	5499.471191
7818.440950	0.087883	0.127657	5578.302734
7818.441881	0.087865	0.127657	5660.104980
7818.442796	0.087843	0.127657	5740.481445
7818.443697	0.087806	0.127657	5819.595215
7818.444586	0.087784	0.127657	5897.635742
7818.445549	0.087821	0.127657	5982.207520
7818.446450	0.087795	0.127657	6061.311035
7818.447348	0.087869	0.127657	6140.217285
7819.497929	0.991575	0.120181	433.318176
7819.498905	1.471666	0.120181	1869.664307
7819.499828	1.466539	0.120181	3223.280273
7819.500731	1.431665	0.120181	4516.073730
7819.501627	0.916425	0.120181	5337.189941
7819.502564	0.102096	0.120181	5432.854004
7819.503470	0.087777	0.120181	5512.379883
7819.504372	0.087880	0.120181	5591.647461
7819.505262	0.087894	0.120181	5669.873535
7819.506204	0.087920	0.120181	5752.694336
7819.507114	0.087971	0.120181	5832.748047
7819.507999	0.087806	0.120181	5910.456543
7819.508952	0.087869	0.120181	5994.195312
7819.509864	0.087770	0.120181	6074.241211
7819.510761	0.087803	0.120181	6153.000488
7820.506077	1.012075	0.127706	456.445923
7820.506973	1.471501	0.127706	1774.911255
7820.507863	1.469202	0.127706	3082.500488
7820.508812	1.433591	0.127706	4442.978516
7820.509744	0.944172	0.127706	5322.947266
7820.510643	0.108779	0.127706	5420.739746
7820.511567	0.087836	0.127706	5501.899902
7820.512474	0.088033	0.127706	5581.746094
7820.513375	0.087858	0.127706	5660.905762
7820.514273	0.087949	0.127706	5739.884277
7820.515226	0.087916	0.127706	5823.668457
7820.516126	0.087828	0.127706	5902.713867
7820.517025	0.087843	0.127706	5981.684570
7820.517910	0.087861	0.127706	6059.441895
7820.518842	0.088004	0.127706	6141.461914
7821.569501	1.014858	0.119117	455.671417
7821.570407	1.472344	0.119117	1789.614868
7821.571332	1.468041	0.119117	3147.552490
7821.572250	1.432603	0.119117	4462.681641
7821.573210	0.888842	0.119117	5315.969727
7821.574112	0.103473	0.119117	5409.302246
7821.575005	0.087806	0.119117	5487.713379
7821.575933	0.087949	0.119117	5569.330078
7821.576845	0.087938	0.119117	5649.529785
7821.577764	0.087894	0.119117	5730.304687
7821.578653	0.087957	0.119117	5808.498047
7821.579600	0.087957	0.119117	5891.792969
7821.580493	0.087876	0.119117	5970.266113
7821.581378	0.087883	0.119117	6048.042969
7821.582303	0.087968	0.119117	6129.413086
7822.577095	0.988828	0.127887	428.162598
7822.578037	1.470417	0.127887	1813.295776
7822.578950	1.468140	0.127887	3153.707275
7822.579870	1.432559	0.127887	4471.661133
7822.580776	0.946846	0.127887	5329.503418
7822.581725	0.105282	0.127887	5429.416016
7822.582633	0.087814	0.127887	5509.150879
7822.583528	0.087799	0.127887	5587.730957
7822.584415	0.087795	0.127887	5665.605469
7822.585358	0.087953	0.127887	5748.544922
7822.586263	0.088004	0.127887	5828.188477
7822.587157	0.087810	0.127887	5906.690430
7822.588095	0.087960	0.127887	5989.197266
7822.589001	0.088055	0.127887	6068.975586
7822.589895	0.087869	0.127887	6147.530273
7823.641029	1.005619	0.120036	439.455475
7823.642011	1.475739	0.120036	1888.630737
7823.642940	1.465946	0.120036	3250.494629
7823.643848	1.430625	0.120036	4549.501953
7823.644800	0.825480	0.120036	5335.358398
7823.645702	0.099097	0.120036	5424.743652
7823.646604	0.087762	0.120036	5503.905273
7823.647489	0.087839	0.120036	5581.643066
7823.648437	0.088026	0.120036	5665.091797
7823.649345	0.087927	0.120036	5744.929687
7823.650233	0.087850	0.120036	5822.940918
7823.651137	0.087920	0.120036	5902.420410
7823.652062	0.087979	0.120036	5983.800781
7823.652968	0.087715	0.120036	6063.270508
7823.653865	0.087803	0.120036	6142.029785
7824.648672	1.021333	0.127887	459.599854
7824.649603	1.473208	0.127887	1831.156616
7824.650502	1.467631	0.127887	3150.556641
7824.651454	1.431947	0.127887	4513.770020
7824.652378	0.895624	0.127887	5341.326172
7824.653273	0.104941	0.127887	5435.248535
7824.654166	0.087748	0.127887	5513.607422
7824.655120	0.087858	0.127887	5597.423828
7824.656023	0.087872	0.127887	5676.772461
7824.656922	0.088022	0.127887	5755.904785
7824.657838	0.088026	0.127887	5836.536621
7824.658734	0.088011	0.127887	5915.395020
7824.659640	0.087953	0.127887	5995.080078
7824.660530	0.087887	0.127887	6073.299316
7824.661476	0.087975	0.127887	6156.523437
7825.712601	1.013068	0.119420	458.919617
7825.713503	1.472007	0.119420	1786.669678
7825.714451	1.468022	0.119420	3178.354980
7825.715370	1.432548	0.119420	4494.866211
7825.716282	0.924847	0.119420	5338.327148
7825.717169	0.108530	0.119420	5434.593262
7825.718114	0.087894	0.119420	5517.653320
7825.719012	0.087975	0.119420	5596.654785
7825.719905	0.087865	0.119420	5675.118164
7825.720792	0.087850	0.119420	5753.041504
7825.721743	0.087997	0.119420	5836.726562
7825.722652	0.087843	0.119420	5916.575684
7825.723549	0.087960	0.119420	5995.476074
7825.724475	0.087924	0.119420	6076.893555
7825.725372	0.087836	0.119420	6155.682129
7826.719702	1.000653	0.127061	450.293854
7826.720602	1.471868	0.127061	1774.974731
7826.721552	1.467931	0.127061	3169.509277
7826.722476	1.432247	0.127061	4492.905762
7826.723387	0.923994	0.127061	5334.664551
7826.724277	0.108179	0.127061	5430.943359
7826.725229	0.087708	0.127061	5514.440918
7826.726119	0.087850	0.127061	5592.627930
7826.727024	0.087806	0.127061	5672.092773
7826.727917	0.087902	0.127061	5750.588867
7826.728866	0.087975	0.127061	5834.077148
7826.729771	0.087953	0.127061	5913.674316
7826.730657	0.087828	0.127061	5991.490234
7826.731586	0.087949	0.127061	6073.194824
7826.732493	0.087898	0.127061	6152.918457
7827.784171	1.005271	0.120100	472.477417
7827.785090	1.474054	0.120100	1827.133057
7827.786013	1.467206	0.120100	3181.364258
7827.786907	1.432621	0.120100	4462.127441
7827.787868	0.887574	0.120100	5315.086426
7827.788776	0.103612	0.120100	5409.166016
7827.789668	0.087858	0.120100	5487.535156
7827.790559	0.087953	0.120100	5565.901367
7827.791518	0.087964	0.120100	5650.258789
7827.792424	0.087861	0.120100	5729.861328
7827.793322	0.087887	0.120100	5808.783691
7827.794247	0.087971	0.120100	5890.157227
7827.795151	0.087876	0.120100	5969.597168
7827.796048	0.087854	0.120100	6048.402344
7827.796933	0.087865	0.120100	6126.163086
7828.791254	1.006655	0.126759	446.954926
7828.792172	1.471985	0.126759	1798.237061
7828.793069	1.468854	0.126759	3115.798828
7828.793997	1.433492	0.126759	4446.080078
7828.794938	0.928802	0.126759	5320.083008
7828.795846	0.106816	0.126759	5417.072266
7828.796747	0.087799	0.126759	5496.179199
7828.797684	0.087993	0.126759	5578.628906
7828.798595	0.087916	0.126759	5658.720703
7828.799493	0.087817	0.126759	5737.580566
7828.800381	0.087986	0.126759	5815.711914
7828.801324	0.087986	0.126759	5898.682617
7828.802231	0.087942	0.126759	5978.445801
7828.803120	0.087902	0.126759	6056.590332
7828.804046	0.087883	0.126759	6137.970215
7829.855183	1.004037	0.120346	445.792389
7829.856087	1.471556	0.120346	1776.079346
7829.856979	1.469048	0.120346	3086.469971
7829.857952	1.432745	0.120346	4480.531250
7829.858875	0.927316	0.120346	5336.443359
7829.859764	0.108611	0.120346	5432.998535
7829.860716	0.087865	0.120346	5516.645996
7829.861617	0.087953	0.120346	5595.891602
7829.862507	0.087850	0.120346	5674.078613
7829.863396	0.087839	0.120346	5752.167969
7829.864325	0.087979	0.120346	5833.899902
7829.865241	0.087913	0.120346	5914.427734
7829.866144	0.087792	0.120346	5993.703613
7829.867030	0.087854	0.120346	6071.542480
7829.867984	0.088132	0.120346	6155.620605
7830.862298	1.010984	0.126538	451.909760
7830.863197	1.471615	0.126538	1774.891602
7830.864164	1.467224	0.126538	3193.697266
7830.865074	1.432083	0.126538	4496.892578
7830.865993	0.918713	0.126538	5341.190430
7830.866878	0.108270	0.126538	5437.009766
7830.867809	0.088000	0.126538	5518.937988
7830.868721	0.087902	0.126538	5599.104492
7830.869623	0.087891	0.126538	5678.381836
7830.870547	0.087986	0.126538	5759.680664
7830.871455	0.088066	0.126538	5839.645020
7830.872358	0.087814	0.126538	5918.940918
7830.873253	0.087927	0.126538	5997.635742
7830.874193	0.087971	0.126538	6080.328613
7830.875103	0.087960	0.126538	6160.372559
7831.926230	0.995555	0.120946	440.035522
7831.927125	1.470905	0.120946	1756.495117
7831.928077	1.468403	0.120946	3154.415039
7831.928991	1.432976	0.120946	4464.155273
7831.929925	0.921958	0.120946	5325.264160
7831.930814	0.107882	0.120946	5421.171387
7831.931777	0.087755	0.120946	5505.679687
7831.932679	0.087799	0.120946	5584.874512
7831.933600	0.087836	0.120946	5665.770996
7831.934495	0.087913	0.120946	5744.452637
7831.935429	0.087858	0.120946	5826.511719
7831.936331	0.087905	0.120946	5905.802246
7831.937222	0.087920	0.120946	5984.138672
7831.938159	0.088015	0.120946	6066.608887
7831.939067	0.087927	0.120946	6146.446777
7832.933899	1.054497	0.126562	529.357544
7832.934814	1.475281	0.126562	1879.239380
7832.935719	1.466748	0.126562	3206.646484
7832.936615	1.432024	0.126562	4489.739746
7832.937584	0.862375	0.126562	5325.381836
7832.938480	0.101924	0.126562	5416.705566
7832.939380	0.087788	0.126562	5495.714844
7832.940314	0.087993	0.126562	5577.900391
7832.941220	0.088044	0.126562	5657.668457
7832.942130	0.087891	0.126562	5737.648926
7832.943027	0.087839	0.126562	5816.440918
7832.943974	0.088019	0.126562	5899.794922
7832.944879	0.087968	0.126562	5979.405762
7832.945772	0.087982	0.126562	6057.973633
7832.946656	0.087953	0.126562	6135.724121
7833.998293	1.006377	0.120636	449.850525
7833.999192	1.471168	0.120636	1772.430908
7834.000110	1.468488	0.120636	3120.502441
7834.001061	1.432474	0.120636	4482.785156
7834.001988	0.918058	0.120636	5333.824707
7834.002884	0.106747	0.120636	5429.469727
7834.003814	0.087825	0.120636	5511.146484
7834.004718	0.088022	0.120636	5590.718750
7834.005627	0.087953	0.120636	5670.667969
7834.006518	0.087784	0.120636	5748.883789
7834.007461	0.087975	0.120636	5831.844238
7834.008368	0.087927	0.120636	5911.594238
7834.009259	0.087799	0.120636	5989.823242
7834.010179	0.087872	0.120636	6070.666016
7834.011091	0.088019	0.120636	6150.938965
7835.005397	0.995852	0.127102	443.154175
7835.006295	1.471150	0.127102	1764.246826
7835.007191	1.469220	0.127102	3080.667969
7835.008149	1.433002	0.127102	4453.483398
7835.009073	0.943326	0.127102	5325.117187
7835.009965	0.109266	0.127102	5422.583008
7835.010872	0.087784	0.127102	5502.203613
7835.011805	0.087858	0.127102	5584.174805
7835.012697	0.087920	0.127102	5662.599609
7835.013587	0.087832	0.127102	5740.770020
7835.014527	0.087880	0.127102	5823.376953
7835.015425	0.087847	0.127102	5902.263184
7835.016341	0.087913	0.127102	5982.791016
7835.017243	0.087887	0.127102	6062.064941
7835.018183	0.087880	0.127102	6144.671875
7836.069320	0.994175	0.118892	432.466034
7836.070295	1.473245	0.118892	1868.879639
7836.071213	1.466646	0.118892	3215.260254
7836.072118	1.431566	0.118892	4510.827637
7836.073019	0.908166	0.118892	5329.085449
7836.073975	0.101774	0.118892	5426.380859
7836.074874	0.087781	0.118892	5505.295898
7836.075771	0.087927	0.118892	5584.166504
7836.076703	0.087927	0.118892	5666.114746
7836.077608	0.088000	0.118892	5745.755371
7836.078502	0.087792	0.118892	5824.241211
7836.079390	0.087828	0.118892	5902.232910
7836.080337	0.088019	0.118892	5985.586914
7836.081234	0.087920	0.118892	6064.451172
7836.082135	0.087872	0.118892	6143.624023
7837.076969	1.030056	0.125631	473.825806
7837.077890	1.473589	0.125631	1831.001099
7837.078800	1.467953	0.125631	3166.838135
7837.079694	1.432672	0.125631	4447.646973
7837.080656	0.904281	0.125631	5317.565430
7837.081568	0.104619	0.125631	5412.978027
7837.082459	0.087759	0.125631	5491.170898
7837.083400	0.087927	0.125631	5573.910645
7837.084308	0.087847	0.125631	5653.675293
7837.085206	0.087942	0.125631	5732.646973
7837.086093	0.087861	0.125631	5810.580078
7837.087030	0.088000	0.125631	5893.036621
7837.087935	0.087986	0.125631	5972.663574
7837.088836	0.087924	0.125631	6051.882812
7837.089724	0.087982	0.125631	6130.010742
7838.140946	1.046173	0.119923	532.502075
7838.141852	1.474955	0.119923	1868.811157
7838.142768	1.466103	0.119923	3211.761963
7838.143675	1.430995	0.119923	4509.674316
7838.144643	0.826296	0.119923	5309.529297
7838.145545	0.098969	0.119923	5398.798828
7838.146433	0.087777	0.119923	5476.745117
7838.147361	0.087836	0.119923	5558.256836
7838.148281	0.087905	0.119923	5639.129883
7838.149179	0.087946	0.119923	5718.104980
7838.150065	0.087920	0.119923	5796.001953
7838.151010	0.087968	0.119923	5879.131348
7838.151905	0.087883	0.119923	5957.787109
7838.152790	0.087887	0.119923	6035.566895
7838.153736	0.087931	0.119923	6118.749512
7839.148000	1.014104	0.126912	461.417328
7839.148893	1.471743	0.126912	1775.683960
7839.149840	1.467803	0.126912	3165.693359
7839.150761	1.432434	0.126912	4484.964844
7839.151677	0.922566	0.126912	5330.035156
7839.152567	0.107794	0.126912	5425.972168
7839.153541	0.087854	0.126912	5511.541992
7839.154440	0.087913	0.126912	5590.575195
7839.155341	0.087876	0.126912	5669.751465
7839.156250	0.087814	0.126912	5749.574219
7839.157167	0.087880	0.126912	5830.159668
7839.158078	0.087828	0.126912	5910.171387
7839.158967	0.087850	0.126912	5988.270508
7839.159903	0.087920	0.126912	6070.563477
7839.160814	0.087799	0.126912	6150.548340
