time (s)	coil I (A)	last det (V)	int current (uC)
6974.364122	1.020004	0.101739	463.081665
6974.365036	1.472930	0.101739	1809.339478
6974.365938	1.469429	0.101739	3134.764160
6974.366908	0.808971	0.101739	3919.465820
6974.367809	0.097950	0.101739	4007.719238
6974.368708	0.087678	0.101739	4086.541992
6974.369639	0.087927	0.101739	4168.402344
6974.370545	0.087861	0.101739	4248.004883
6974.371444	0.087883	0.101739	4327.012207
6974.372328	0.087887	0.101739	4404.704102
6974.373265	0.087905	0.101739	4487.071289
6974.374172	0.087891	0.101739	4566.788086
6974.375073	0.087902	0.101739	4645.987305
6974.375959	0.087784	0.101739	4723.764160
6975.371225	1.009794	0.098206	455.416992
6975.372123	1.472662	0.098206	1777.867798
6975.373068	1.469150	0.098206	3166.214844
6975.373992	0.830823	0.098206	3933.895020
6975.374889	0.099316	0.098206	4022.981934
6975.375780	0.087697	0.098206	4101.119629
6975.376734	0.087964	0.098206	4185.037109
6975.377638	0.087865	0.098206	4264.467285
6975.378533	0.087850	0.098206	4343.093262
6975.379456	0.087924	0.098206	4424.246582
6975.380360	0.088033	0.098206	4503.828613
6975.381252	0.087891	0.098206	4582.227051
6975.382135	0.087894	0.098206	4659.837891
6975.383067	0.087942	0.098206	4741.799805
6976.435659	0.992948	0.104434	433.918304
6976.436630	1.473303	0.104434	1864.495728
6976.437542	1.468001	0.104434	3203.312256
6976.438451	0.814146	0.104434	3943.370605
6976.439340	0.098815	0.104434	4031.216797
6976.440283	0.087828	0.104434	4114.039062
6976.441189	0.087898	0.104434	4193.674805
6976.442087	0.087909	0.104434	4272.617187
6976.443003	0.087891	0.104434	4353.125000
6976.443923	0.087946	0.104434	4434.035156
6976.444818	0.087858	0.104434	4512.667969
6976.445705	0.087847	0.104434	4590.587891
6976.446635	0.088008	0.104434	4672.435059
6976.447549	0.087865	0.104434	4752.743652
6977.440720	1.004623	0.105437	447.057159
6977.441618	1.472597	0.105437	1769.448853
6977.442572	1.469520	0.105437	3171.371094
6977.443501	0.821616	0.105437	3934.652588
6977.444396	0.098979	0.105437	4023.239258
6977.445282	0.087773	0.105437	4101.006348
6977.446236	0.087935	0.105437	4184.895996
6977.447135	0.087942	0.105437	4263.955566
6977.448040	0.087957	0.105437	4343.556152
6977.448927	0.087887	0.105437	4421.511719
6977.449863	0.087968	0.105437	4503.849121
6977.450773	0.087865	0.105437	4583.806152
6977.451663	0.087898	0.105437	4662.035156
6977.452589	0.087847	0.105437	4743.381348
6978.507215	0.998833	0.099931	442.483002
6978.508112	1.472080	0.099931	1762.938843
6978.509035	1.470205	0.099931	3119.937988
6978.509982	0.847983	0.099931	3922.978271
6978.510887	0.099646	0.099931	4013.157959
6978.511785	0.087759	0.099931	4091.965332
6978.512725	0.087854	0.099931	4174.547852
6978.513628	0.087964	0.099931	4253.979004
6978.514527	0.087887	0.099931	4332.989258
6978.515412	0.087883	0.099931	4410.766113
6978.516350	0.088000	0.099931	4493.310547
6978.517259	0.087924	0.099931	4573.232910
6978.518159	0.087751	0.099931	4652.208984
6978.519083	0.087894	0.099931	4733.423340
6979.510745	1.013203	0.102464	455.941406
6979.511640	1.472882	0.102464	1774.170776
6979.512597	1.469209	0.102464	3180.203613
6979.513522	0.825754	0.102464	3944.026367
6979.514415	0.098972	0.102464	4032.408447
6979.515303	0.087744	0.102464	4110.325195
6979.516241	0.087990	0.102464	4192.859375
6979.517150	0.087814	0.102464	4272.682129
6979.518047	0.087832	0.102464	4351.467285
6979.518968	0.087902	0.102464	4432.424805
6979.519875	0.087949	0.102464	4512.194824
6979.520783	0.087828	0.102464	4591.942871
6979.521677	0.087924	0.102464	4670.546387
6979.522609	0.087920	0.102464	4752.487793
6980.578761	1.000254	0.102907	434.110199
6980.579729	1.476156	0.102907	1863.029175
6980.580646	1.468407	0.102907	3209.558594
6980.581557	0.813193	0.102907	3950.377686
6980.582495	0.097141	0.102907	4041.496094
6980.583397	0.087817	0.102907	4120.707520
6980.584298	0.087828	0.102907	4199.840820
6980.585184	0.087861	0.102907	4277.686035
6980.586126	0.087905	0.102907	4360.492676
6980.587031	0.087828	0.102907	4439.977539
6980.587922	0.087872	0.102907	4518.271973
6980.588845	0.087806	0.102907	4599.317383
6980.589761	0.087843	0.102907	4679.781738
6980.590669	0.087806	0.102907	4759.509766
6981.583309	0.999060	0.100930	439.586395
6981.584207	1.472036	0.100930	1761.474854
6981.585099	1.470926	0.100930	3073.541260
6981.586057	0.880778	0.100930	3917.326172
6981.586961	0.102253	0.100930	4009.763184
6981.587861	0.087693	0.100930	4088.686768
6981.588789	0.087891	0.100930	4170.249023
6981.589690	0.087865	0.100930	4249.415527
6981.590596	0.087883	0.100930	4329.037598
6981.591486	0.087920	0.100930	4407.286133
6981.592423	0.087942	0.100930	4489.687500
6981.593318	0.087909	0.100930	4568.366211
6981.594218	0.087825	0.100930	4647.408203
6981.595107	0.087920	0.100930	4725.568848
6982.649347	1.046539	0.107278	518.036987
6982.650275	1.476555	0.107278	1888.280273
6982.651185	1.467953	0.107278	3224.117187
6982.652081	0.807759	0.107278	3947.869141
6982.653034	0.095284	0.107278	4038.675293
6982.653932	0.087788	0.107278	4117.508789
6982.654819	0.087887	0.107278	4195.464355
6982.655739	0.087865	0.107278	4276.300293
6982.656660	0.087949	0.107278	4357.301758
6982.657560	0.087759	0.107278	4436.284668
6982.658445	0.087869	0.107278	4514.048340
6982.659374	0.087957	0.107278	4595.759766
6982.660278	0.087770	0.107278	4675.103516
6982.661173	0.087942	0.107278	4753.811523
6983.653328	1.005216	0.104893	445.310730
6983.654230	1.472358	0.104893	1773.377930
6983.655154	1.470073	0.104893	3131.725586
6983.656099	0.846595	0.104893	3931.758301
6983.657000	0.099719	0.104893	4021.605225
6983.657893	0.087850	0.104893	4100.055664
6983.658827	0.087909	0.104893	4182.162598
6983.659740	0.087924	0.104893	4262.437012
6983.660641	0.087905	0.104893	4341.639648
6983.661526	0.088015	0.104893	4419.533203
6983.662476	0.088059	0.104893	4503.189453
6983.663386	0.087861	0.104893	4583.143066
6983.664282	0.087968	0.104893	4661.961914
6983.665205	0.087891	0.104893	4743.084961
6984.720336	1.008545	0.103790	450.819580
6984.721233	1.472560	0.103790	1771.705688
6984.722183	1.469363	0.103790	3167.600342
6984.723105	0.836462	0.103790	3938.818604
6984.724008	0.099503	0.103790	4028.669922
6984.724897	0.087722	0.103790	4106.654785
6984.725843	0.088000	0.103790	4189.903320
6984.726745	0.087770	0.103790	4269.071777
6984.727635	0.087916	0.103790	4347.317383
6984.728573	0.087836	0.103790	4429.707031
6984.729480	0.087847	0.103790	4509.383789
6984.730384	0.087847	0.103790	4588.797363
6984.731272	0.087806	0.103790	4666.769531
6984.732223	0.088026	0.103790	4750.482422
6985.721807	1.009490	0.105228	450.232452
6985.722764	1.476244	0.105228	1862.997803
6985.723679	1.468206	0.105228	3206.405762
6985.724580	0.827472	0.105228	3951.958008
6985.725515	0.099346	0.105228	4044.846191
6985.726428	0.087872	0.105228	4125.073730
6985.727336	0.087784	0.105228	4204.782227
6985.728226	0.087997	0.105228	4283.099609
6985.729163	0.087953	0.105228	4365.511230
6985.730071	0.087821	0.105228	4445.252930
6985.730972	0.087825	0.105228	4524.382812
6985.731855	0.087711	0.105228	4601.831543
6985.732795	0.087924	0.105228	4684.479492
6985.733701	0.087814	0.105228	4764.038574
6986.795477	1.005494	0.102198	445.433990
6986.796395	1.473358	0.102198	1797.976685
6986.797303	1.469725	0.102198	3132.487305
6986.798248	0.850898	0.102198	3936.586426
6986.799159	0.098489	0.102198	4026.309570
6986.800067	0.087759	0.102198	4105.994629
6986.800961	0.087854	0.102198	4184.536133
6986.801909	0.087953	0.102198	4267.915527
6986.802813	0.087909	0.102198	4347.385254
6986.803708	0.087883	0.102198	4426.041016
6986.804594	0.087894	0.102198	4503.915527
6986.805540	0.087960	0.102198	4587.125977
6986.806442	0.087814	0.102198	4666.333984
6986.807339	0.087872	0.102198	4745.155273
6987.794375	0.991531	0.103568	433.298920
6987.795339	1.475929	0.103568	1856.094360
6987.796252	1.468506	0.103568	3196.840332
6987.797167	0.814625	0.103568	3942.222412
6987.798081	0.098606	0.103568	4032.348145
6987.799016	0.087847	0.103568	4114.484863
6987.799925	0.087843	0.103568	4194.333984
6987.800818	0.087843	0.103568	4272.777832
6987.801748	0.087946	0.103568	4354.567383
6987.802651	0.087982	0.103568	4434.015137
6987.803555	0.087916	0.103568	4513.491211
6987.804443	0.087740	0.103568	4591.404785
6987.805397	0.087931	0.103568	4675.291016
6987.806305	0.087828	0.103568	4755.039062
6988.864461	0.998969	0.106553	442.543060
6988.865354	1.472007	0.106553	1757.045166
6988.866326	1.469022	0.106553	3184.934814
6988.867229	0.838872	0.106553	3942.436279
6988.868117	0.100181	0.106553	4031.396729
6988.869053	0.087850	0.106553	4113.624512
6988.869954	0.087766	0.106553	4192.701660
6988.870860	0.087759	0.106553	4272.210937
6988.871757	0.087905	0.106553	4351.062012
6988.872727	0.087828	0.106553	4436.255371
6988.873633	0.087839	0.106553	4515.837891
6988.874553	0.087832	0.106553	4596.643555
6988.875439	0.087916	0.106553	4674.537598
6988.876401	0.087883	0.106553	4759.081543
6989.864398	1.015561	0.107161	450.909302
6989.865361	1.476262	0.107161	1872.549805
6989.866284	1.467880	0.107161	3227.402588
6989.867190	0.801841	0.107161	3953.870361
6989.868123	0.097196	0.107161	4044.554199
6989.869029	0.087865	0.107161	4124.159668
6989.869932	0.087858	0.107161	4203.495117
6989.870818	0.087905	0.107161	4281.379395
6989.871760	0.088011	0.107161	4364.286133
6989.872666	0.087883	0.107161	4443.908203
6989.873562	0.087942	0.107161	4522.704102
6989.874451	0.087825	0.107161	4600.780273
6989.875397	0.087847	0.107161	4683.883301
6989.876306	0.087836	0.107161	4763.726074
6990.936538	1.002715	0.104172	445.205414
6990.937436	1.472088	0.104172	1767.140015
6990.938397	1.468960	0.104172	3178.810547
6990.939319	0.824139	0.104172	3938.666992
6990.940208	0.099287	0.104172	4026.933105
6990.941122	0.087876	0.104172	4107.251953
6990.942057	0.087957	0.104172	4189.491211
6990.942962	0.087880	0.104172	4269.022461
6990.943858	0.087916	0.104172	4347.795410
6990.944796	0.087942	0.104172	4430.284668
6990.945699	0.087902	0.104172	4509.659668
6990.946602	0.087946	0.104172	4589.074707
6990.947489	0.087799	0.104172	4666.952637
6990.948441	0.088059	0.104172	4750.784668
6991.934915	0.993856	0.106356	430.339722
6991.935897	1.476354	0.106356	1880.119141
6991.936810	1.468367	0.106356	3220.738037
6991.937711	0.815841	0.106356	3955.810791
6991.938635	0.099031	0.106356	4047.315186
6991.939551	0.087697	0.106356	4127.645020
6991.940445	0.087777	0.106356	4206.117676
6991.941331	0.087876	0.106356	4283.975586
6991.942270	0.087902	0.106356	4366.515137
6991.943176	0.087759	0.106356	4446.024414
6991.944094	0.087788	0.106356	4526.613770
6991.944989	0.087803	0.106356	4605.197266
6991.945947	0.087850	0.106356	4689.357910
6991.946850	0.087825	0.106356	4768.663574
6993.009114	1.005004	0.104547	453.256653
6993.010012	1.472549	0.104547	1775.605469
6993.010945	1.469916	0.104547	3147.036865
6993.011873	0.849199	0.104547	3935.093750
6993.012777	0.099998	0.104547	4025.491455
6993.013672	0.087766	0.104547	4104.041992
6993.014604	0.087872	0.104547	4185.938965
6993.015513	0.087949	0.104547	4265.884766
6993.016414	0.087788	0.104547	4344.981934
6993.017302	0.087792	0.104547	4422.940918
6993.018249	0.087876	0.104547	4506.159668
6993.019160	0.087799	0.104547	4586.144531
6993.020051	0.087784	0.104547	4664.360352
6993.020975	0.087803	0.104547	4745.490234
6994.005467	1.010782	0.106847	449.798218
6994.006372	1.472974	0.106847	1782.839355
6994.007266	1.470194	0.106847	3097.192871
6994.008243	0.828721	0.106847	3906.853027
6994.009148	0.099078	0.106847	3996.519043
6994.010036	0.087788	0.106847	4074.474854
6994.010967	0.087942	0.106847	4156.348633
6994.011872	0.087993	0.106847	4235.982422
6994.012772	0.087740	0.106847	4314.948730
6994.013661	0.087854	0.106847	4393.050781
6994.014599	0.087949	0.106847	4475.547363
6994.015495	0.087920	0.106847	4554.323730
6994.016398	0.087810	0.106847	4633.616211
6994.017286	0.087876	0.106847	4711.649902
6995.079637	1.002730	0.106964	448.220093
6995.080529	1.472216	0.106964	1761.436401
6995.081469	1.469674	0.106964	3142.930176
6995.082395	0.848811	0.106964	3928.929199
6995.083289	0.100455	0.106964	4018.736328
6995.084180	0.087700	0.106964	4096.877441
6995.085136	0.087975	0.106964	4180.981445
6995.086038	0.087751	0.106964	4260.133301
6995.086930	0.087876	0.106964	4338.518555
6995.087851	0.087913	0.106964	4419.485840
6995.088762	0.087902	0.106964	4499.564453
6995.089660	0.087891	0.106964	4578.490234
6995.090548	0.087806	0.106964	4656.462402
6995.091480	0.087968	0.106964	4738.448242
6996.077567	1.044280	0.110734	512.741394
6996.078489	1.476636	0.110734	1874.199463
6996.079399	1.468037	0.110734	3210.113281
6996.080302	0.815339	0.110734	3946.364746
6996.081265	0.094669	0.110734	4037.531250
6996.082166	0.087773	0.110734	4116.615234
6996.083063	0.087814	0.110734	4195.384277
6996.083981	0.087964	0.110734	4276.135254
6996.084887	0.088011	0.110734	4355.873535
6996.085786	0.087869	0.110734	4434.867676
6996.086678	0.087872	0.110734	4513.250000
6996.087616	0.087990	0.110734	4595.784180
6996.088515	0.088008	0.110734	4674.903320
6996.089417	0.087909	0.110734	4754.197266
6997.151714	1.019506	0.103705	458.777527
6997.152615	1.473116	0.103705	1786.055420
6997.153509	1.470333	0.103705	3100.533203
6997.154480	0.838883	0.103705	3915.088623
6997.155381	0.099360	0.103705	4004.612305
6997.156277	0.087766	0.103705	4083.250732
6997.157202	0.087957	0.103705	4164.610352
6997.158109	0.087982	0.103705	4244.410156
6997.159015	0.087858	0.103705	4324.009277
6997.159909	0.087927	0.103705	4402.616211
6997.160853	0.087942	0.103705	4485.633301
6997.161751	0.087858	0.103705	4564.529297
6997.162647	0.087931	0.103705	4643.315430
6997.163531	0.087850	0.103705	4720.975098
6998.147599	1.022897	0.108700	518.608643
6998.148506	1.476768	0.108700	1858.036865
6998.149416	1.467957	0.108700	3193.877441
6998.150314	0.826014	0.108700	3935.638428
6998.151249	0.096672	0.108700	4026.027100
6998.152168	0.087700	0.108700	4106.623535
6998.153070	0.087850	0.108700	4185.864746
6998.153959	0.087894	0.108700	4264.002930
6998.154904	0.087916	0.108700	4347.083984
6998.155800	0.087883	0.108700	4425.827637
6998.156689	0.087883	0.108700	4503.956055
6998.157634	0.087986	0.108700	4587.102539
6998.158527	0.087957	0.108700	4665.647949
6998.159434	0.087792	0.108700	4745.274902
6999.223249	1.002429	0.105461	444.076111
6999.224207	1.475262	0.105461	1857.377441
6999.225113	1.468597	0.105461	3187.926758
6999.226021	0.834360	0.105461	3945.525879
6999.226931	0.099921	0.105461	4036.453613
6999.227858	0.087883	0.105461	4117.921387
6999.228770	0.087872	0.105461	4198.061035
6999.229670	0.087927	0.105461	4277.195312
6999.230609	0.087986	0.105461	4359.813965
6999.231510	0.087858	0.105461	4438.973633
6999.232408	0.087971	0.105461	4517.971680
6999.233295	0.087979	0.105461	4596.008789
6999.234226	0.088037	0.105461	4677.971191
6999.235131	0.087913	0.105461	4757.532227
7000.218583	1.008838	0.109167	452.968170
7000.219477	1.472446	0.109167	1769.335205
7000.220430	1.469520	0.109167	3169.788086
7000.221340	0.845951	0.109167	3939.603516
7000.222243	0.099888	0.109167	4029.802002
7000.223135	0.087700	0.109167	4108.030762
7000.224076	0.087887	0.109167	4190.732422
7000.224980	0.087872	0.109167	4270.168945
7000.225883	0.087781	0.109167	4349.435059
7000.226776	0.087766	0.109167	4427.810059
7000.227709	0.087869	0.109167	4509.791504
7000.228613	0.087719	0.109167	4589.088867
7000.229507	0.087777	0.109167	4667.561523
7000.230442	0.087836	0.109167	4749.687988
7001.293770	1.011028	0.109957	442.830170
7001.294740	1.476372	0.109957	1874.911011
7001.295655	1.468030	0.109957	3218.158203
7001.296554	0.821294	0.109957	3956.501465
7001.297484	0.098309	0.109957	4047.929199
7001.298404	0.087697	0.109957	4128.609863
7001.299301	0.087817	0.109957	4207.381836
7001.300191	0.087715	0.109957	4285.448242
7001.301132	0.087942	0.109957	4368.201660
7001.302029	0.087799	0.109957	4446.957520
7001.302914	0.087869	0.109957	4524.721191
7001.303825	0.087865	0.109957	4604.766113
7001.304751	0.087832	0.109957	4686.098633
7001.305652	0.087803	0.109957	4765.208984
7002.290646	1.007516	0.110469	448.344513
7002.291560	1.473029	0.110469	1794.692627
7002.292470	1.469729	0.110469	3132.145996
7002.293422	0.845211	0.110469	3936.787109
7002.294328	0.098903	0.110469	4026.392822
7002.295243	0.087748	0.110469	4106.682129
7002.296137	0.087777	0.110469	4185.154785
7002.297071	0.088026	0.110469	4267.371094
7002.297973	0.087887	0.110469	4346.645020
7002.298873	0.087821	0.110469	4425.684082
7002.299764	0.087927	0.110469	4504.027344
7002.300712	0.087902	0.110469	4587.357910
7002.301616	0.087792	0.110469	4666.721680
7002.302510	0.087876	0.110469	4745.282715
7003.364362	1.045382	0.105993	523.736389
7003.365280	1.476493	0.105993	1879.156738
7003.366204	1.467356	0.105993	3234.993652
7003.367100	0.797164	0.105993	3949.252930
7003.368067	0.094310	0.105993	4040.450928
7003.368966	0.087653	0.105993	4119.250488
7003.369854	0.087781	0.105993	4197.199707
7003.370780	0.087887	0.105993	4278.583008
7003.371711	0.087766	0.105993	4360.293457
7003.372607	0.087887	0.105993	4439.040039
7003.373496	0.087766	0.105993	4517.063965
7003.374431	0.087762	0.105993	4599.122070
7003.375342	0.087795	0.105993	4679.103516
7003.376263	0.087880	0.105993	4760.040527
7004.362188	0.989773	0.109510	429.561462
7004.363117	1.471608	0.109510	1796.685059
7004.364040	1.469568	0.109510	3153.096191
7004.364965	0.847896	0.109510	3937.399414
7004.365853	0.100858	0.109510	4026.961426
7004.366794	0.087836	0.109510	4109.614746
7004.367702	0.087858	0.109510	4189.389648
7004.368604	0.087861	0.109510	4268.640625
7004.369492	0.087821	0.109510	4346.625488
7004.370443	0.087839	0.109510	4430.160645
7004.371348	0.087843	0.109510	4509.658691
7004.372242	0.087872	0.109510	4588.216309
7004.373167	0.087898	0.109510	4669.521973
7004.374082	0.087946	0.109510	4749.992187
7005.435342	1.002883	0.108201	443.274414
7005.436239	1.472212	0.108201	1763.848389
7005.437208	1.468791	0.108201	3187.107422
7005.438130	0.817086	0.108201	3940.460937
7005.439025	0.098474	0.108201	4028.595215
7005.439956	0.087927	0.108201	4110.455566
7005.440855	0.087964	0.108201	4189.535156
7005.441755	0.087876	0.108201	4268.623535
7005.442642	0.087821	0.108201	4346.520996
7005.443586	0.087905	0.108201	4429.503418
7005.444477	0.087935	0.108201	4507.853027
7005.445383	0.087913	0.108201	4587.501953
7005.446274	0.087891	0.108201	4665.812500
7005.447222	0.087850	0.108201	4749.094727
7006.432714	0.999097	0.110525	436.605225
7006.433676	1.475449	0.110525	1855.987305
7006.434587	1.468414	0.110525	3193.712891
7006.435498	0.826223	0.110525	3946.402100
7006.436429	0.098774	0.110525	4038.361084
7006.437336	0.087869	0.110525	4118.058105
7006.438235	0.087931	0.110525	4197.107910
7006.439124	0.087777	0.110525	4275.141602
7006.440068	0.087909	0.110525	4358.127441
7006.440966	0.087924	0.110525	4437.083008
7006.441862	0.087803	0.110525	4515.754395
7006.442749	0.087905	0.110525	4593.726562
7006.443695	0.087946	0.110525	4676.922852
7006.444598	0.087784	0.110525	4756.192383
7007.507948	1.037366	0.108450	482.375092
7007.508855	1.474589	0.108450	1819.826904
7007.509787	1.468605	0.108450	3188.566406
7007.510686	0.822982	0.108450	3928.427246
7007.511658	0.095662	0.108450	4021.410400
7007.512581	0.087762	0.108450	4102.415039
7007.513469	0.087887	0.108450	4180.458496
7007.514425	0.087861	0.108450	4264.454102
7007.515323	0.087839	0.108450	4343.333984
7007.516234	0.087880	0.108450	4423.392578
7007.517127	0.087905	0.108450	4501.892090
7007.518067	0.087821	0.108450	4584.443848
7007.518996	0.087784	0.108450	4665.995605
7007.519886	0.087858	0.108450	4744.188965
7008.503773	1.015620	0.112604	454.997803
7008.504672	1.472556	0.112604	1778.825806
7008.505566	1.470608	0.112604	3093.549316
7008.506548	0.829087	0.112604	3907.712646
7008.507454	0.099089	0.112604	3997.487549
7008.508348	0.087755	0.112604	4075.940674
7008.509233	0.087850	0.112604	4153.688477
7008.510191	0.087935	0.112604	4237.929687
7008.511096	0.087799	0.112604	4317.387695
7008.511992	0.087854	0.112604	4396.104980
7008.512922	0.087810	0.112604	4477.768555
7008.513825	0.087916	0.112604	4557.156738
7008.514727	0.087865	0.112604	4636.411133
7008.515616	0.087850	0.112604	4714.510254
7009.577440	1.011603	0.106779	454.209625
7009.578343	1.473182	0.106779	1784.493286
7009.579283	1.469473	0.106779	3165.797607
7009.580211	0.847965	0.106779	3952.709229
7009.581124	0.099668	0.106779	4043.706055
7009.582014	0.087795	0.106779	4121.843750
7009.582940	0.087946	0.106779	4203.281250
7009.583848	0.087810	0.106779	4283.012695
7009.584750	0.087861	0.106779	4362.263672
7009.585640	0.087858	0.106779	4440.457031
7009.586584	0.087931	0.106779	4523.463867
7009.587493	0.087872	0.106779	4603.339844
7009.588388	0.087806	0.106779	4681.926758
7009.589305	0.087960	0.106779	4762.586426
7010.575870	1.019531	0.111250	499.570312
7010.576799	1.477086	0.111250	1871.783325
7010.577709	1.467806	0.111250	3207.487305
7010.578617	0.800358	0.111250	3934.212158
7010.579561	0.096083	0.111250	4024.914307
7010.580462	0.087880	0.111250	4104.093750
7010.581356	0.087898	0.111250	4182.674316
7010.582239	0.087920	0.111250	4260.307617
7010.583177	0.087942	0.111250	4342.796875
7010.584087	0.087828	0.111250	4422.720703
7010.584983	0.087927	0.111250	4501.503418
7010.585920	0.087942	0.111250	4583.904785
7010.586831	0.087872	0.111250	4663.956543
7010.587740	0.087821	0.111250	4743.785645
7011.648458	0.991091	0.109530	432.115814
7011.649353	1.471531	0.109530	1749.135864
7011.650330	1.468700	0.109530	3184.055664
7011.651247	0.823546	0.109530	3939.247559
7011.652135	0.099459	0.109530	4027.567383
7011.653072	0.087777	0.109530	4109.814453
7011.653978	0.087781	0.109530	4189.343750
7011.654877	0.087872	0.109530	4268.340820
7011.655763	0.087876	0.109530	4346.198730
7011.656701	0.087986	0.109530	4428.729492
7011.657612	0.087810	0.109530	4508.724609
7011.658512	0.087880	0.109530	4587.816406
7011.659403	0.087784	0.109530	4666.032227
7011.660347	0.087806	0.109530	4748.921387
7012.646366	1.013844	0.112426	451.160583
7012.647280	1.473237	0.112426	1797.699463
7012.648174	1.470223	0.112426	3112.079102
7012.649142	0.841963	0.112426	3927.099121
7012.650041	0.099298	0.112426	4016.368164
7012.650937	0.087872	0.112426	4095.101807
7012.651829	0.087825	0.112426	4173.441406
7012.652766	0.087982	0.112426	4255.880859
7012.653671	0.087836	0.112426	4335.372070
7012.654575	0.087891	0.112426	4414.825195
7012.655463	0.087935	0.112426	4492.911133
7012.656405	0.087924	0.112426	4575.735352
7012.657316	0.087817	0.112426	4655.736816
7012.658211	0.087942	0.112426	4734.444824
7013.720533	1.006564	0.111125	450.940521
7013.721430	1.472604	0.111125	1771.866089
7013.722373	1.469561	0.111125	3157.661621
7013.723295	0.847753	0.111125	3939.289551
7013.724198	0.099697	0.111125	4029.316162
7013.725083	0.087726	0.111125	4106.953613
7013.726041	0.087913	0.111125	4191.173828
7013.726944	0.087821	0.111125	4270.476074
7013.727846	0.087795	0.111125	4349.667480
7013.728735	0.087839	0.111125	4427.756836
7013.729677	0.087935	0.111125	4510.591309
7013.730581	0.087795	0.111125	4589.958496
7013.731476	0.087777	0.111125	4668.519043
7013.732409	0.087861	0.111125	4750.493652
7014.717397	0.994662	0.113091	442.624512
7014.718301	1.472509	0.113091	1773.772217
7014.719196	1.470388	0.113091	3089.769531
7014.720172	0.828929	0.113091	3898.804687
7014.721075	0.098958	0.113091	3988.163330
7014.722006	0.087759	0.113091	4069.866699
7014.722892	0.087792	0.113091	4147.650391
7014.723838	0.087740	0.113091	4230.652832
7014.724731	0.087682	0.113091	4308.952637
7014.725618	0.087902	0.113091	4386.921387
7014.726554	0.087843	0.113091	4469.142578
7014.727465	0.087773	0.113091	4549.104004
7014.728381	0.087689	0.113091	4629.427246
7014.729276	0.087843	0.113091	4708.046875
7015.790557	1.016257	0.109691	459.348358
7015.791454	1.473091	0.109691	1780.710937
7015.792401	1.469198	0.109691	3172.041504
7015.793315	0.837502	0.109691	3937.518799
7015.794214	0.099661	0.109691	4027.113770
7015.795105	0.087876	0.109691	4105.411133
7015.796067	0.088041	0.109691	4190.106445
7015.796978	0.087883	0.109691	4270.167969
7015.797875	0.087909	0.109691	4349.022461
7015.798807	0.087905	0.109691	4430.950195
7015.799706	0.087902	0.109691	4509.973633
7015.800603	0.087865	0.109691	4588.788574
7015.801490	0.087795	0.109691	4666.663086
7015.802420	0.087931	0.109691	4748.438965
7016.789982	1.011434	0.112801	449.076843
7016.790892	1.473355	0.112801	1789.829590
7016.791795	1.469799	0.112801	3117.057861
7016.792748	0.861610	0.112801	3938.172363
7016.793662	0.100642	0.112801	4030.159180
7016.794550	0.087733	0.112801	4108.066406
7016.795479	0.087814	0.112801	4189.645508
7016.796387	0.087869	0.112801	4269.430176
7016.797288	0.087806	0.112801	4348.543945
7016.798178	0.087854	0.112801	4426.733887
7016.799131	0.087938	0.112801	4510.539062
7016.800038	0.087913	0.112801	4590.275879
7016.800933	0.087861	0.112801	4668.911621
7016.801846	0.087920	0.112801	4749.182617
7017.860570	1.008116	0.111826	455.668640
7017.861466	1.472681	0.111826	1775.190430
7017.862356	1.470374	0.111826	3083.822754
7017.863331	0.844658	0.111826	3907.364502
7017.864224	0.100470	0.111826	3997.084229
7017.865113	0.087719	0.111826	4075.065918
7017.866045	0.087861	0.111826	4156.952637
7017.866965	0.087719	0.111826	4237.653809
7017.867873	0.087832	0.111826	4317.405273
7017.868761	0.087740	0.111826	4395.318848
7017.869691	0.087828	0.111826	4476.999023
7017.870599	0.087729	0.111826	4556.657227
7017.871518	0.087821	0.111826	4637.364746
7017.872403	0.087773	0.111826	4715.044434
7018.861518	1.014408	0.113796	451.411560
7018.862487	1.476306	0.113796	1881.952148
7018.863411	1.467458	0.113796	3237.883789
7018.864318	0.795315	0.113796	3959.234375
7018.865259	0.097006	0.113796	4050.516602
7018.866159	0.087792	0.113796	4129.529297
7018.867059	0.087777	0.113796	4208.528809
7018.867949	0.087825	0.113796	4286.692871
7018.868878	0.087957	0.113796	4368.404297
7018.869776	0.087898	0.113796	4447.336426
7018.870678	0.087814	0.113796	4526.544434
7018.871569	0.087828	0.113796	4604.799316
7018.872503	0.087971	0.113796	4686.964355
7018.873402	0.087861	0.113796	4765.951660
7019.931088	0.990322	0.112475	433.761169
7019.932045	1.475131	0.112475	1845.461182
7019.932960	1.468407	0.112475	3189.053711
7019.933871	0.831724	0.112475	3946.753906
7019.934758	0.099844	0.112475	4035.315430
7019.935694	0.087869	0.112475	4117.560547
7019.936603	0.087675	0.112475	4197.256836
7019.937501	0.087744	0.112475	4276.051270
7019.938442	0.087858	0.112475	4358.725098
7019.939355	0.087865	0.112475	4438.945801
7019.940259	0.087795	0.112475	4518.312988
7019.941145	0.087902	0.112475	4596.193848
7019.942097	0.087971	0.112475	4679.942383
7019.942997	0.087960	0.112475	4759.106445
7020.933090	1.016964	0.113325	462.718719
7020.933989	1.472889	0.113325	1786.846313
7020.934883	1.470421	0.113325	3101.402832
7020.935841	0.848470	0.113325	3914.237549
7020.936753	0.099119	0.113325	4004.633789
7020.937673	0.087821	0.113325	4085.429199
7020.938571	0.087909	0.113325	4164.371582
7020.939511	0.087803	0.113325	4246.906250
7020.940417	0.087872	0.113325	4326.518555
7020.941337	0.087927	0.113325	4407.411621
7020.942222	0.087865	0.113325	4485.172363
7020.943165	0.087880	0.113325	4568.042969
7020.944057	0.087924	0.113325	4646.470703
7020.944946	0.087960	0.113325	4724.667480
7022.002129	1.003352	0.112535	442.478241
7022.003053	1.473116	0.112535	1803.637817
7022.003960	1.469835	0.112535	3136.778320
7022.004917	0.840158	0.112535	3940.809082
7022.005814	0.099778	0.112535	4030.309814
7022.006708	0.087788	0.112535	4108.792480
7022.007593	0.087953	0.112535	4186.630859
7022.008540	0.088011	0.112535	4269.977539
7022.009434	0.087894	0.112535	4348.555176
7022.010340	0.087825	0.112535	4428.124512
7022.011225	0.087898	0.112535	4505.914062
7022.012183	0.087982	0.112535	4590.201172
7022.013085	0.087850	0.112535	4669.442383
7022.013982	0.087942	0.112535	4748.326172
7023.004685	1.016949	0.112934	507.457764
7023.005593	1.476171	0.112934	1847.820679
7023.006502	1.468323	0.112934	3182.525879
7023.007407	0.828556	0.112934	3932.369141
7023.008349	0.096412	0.112934	4023.189453
7023.009259	0.087828	0.112934	4103.113281
7023.010165	0.087891	0.112934	4182.742187
7023.011052	0.087891	0.112934	4260.701172
7023.011998	0.087960	0.112934	4343.911621
7023.012911	0.087803	0.112934	4424.075684
7023.013804	0.087832	0.112934	4502.509766
7023.014748	0.087872	0.112934	4585.461426
7023.015651	0.088008	0.112934	4664.932617
7023.016553	0.087854	0.112934	4744.176758
7024.072675	1.016444	0.113301	459.432739
7024.073586	1.473387	0.113301	1801.688721
7024.074482	1.470242	0.113301	3119.025391
7024.075427	0.860508	0.113301	3932.205322
7024.076349	0.099375	0.113301	4023.829102
7024.077243	0.087850	0.113301	4102.367187
7024.078132	0.087799	0.113301	4180.420410
7024.079070	0.087931	0.113301	4262.899414
7024.079974	0.087810	0.113301	4342.279785
7024.080895	0.087872	0.113301	4423.209961
7024.081783	0.087993	0.113301	4501.347656
7024.082726	0.087880	0.113301	4584.218262
7024.083632	0.087887	0.113301	4663.843750
7024.084521	0.087916	0.113301	4742.001465
7025.076685	0.997756	0.114787	440.010590
7025.077579	1.471633	0.114787	1755.650757
7025.078561	1.468542	0.114787	3197.759277
7025.079482	0.816167	0.114787	3949.449219
7025.080369	0.098580	0.114787	4036.889893
7025.081304	0.087839	0.114787	4119.019531
7025.082211	0.087982	0.114787	4198.819336
7025.083110	0.087869	0.114787	4277.813477
7025.084002	0.087883	0.114787	4356.205566
7025.084955	0.087949	0.114787	4440.020996
7025.085850	0.087894	0.114787	4518.686523
7025.086745	0.087883	0.114787	4597.342285
7025.087639	0.087832	0.114787	4675.864258
7025.088574	0.087968	0.114787	4758.113770
7026.143183	0.996603	0.114928	438.505219
7026.144077	1.471512	0.114928	1754.037354
7026.145021	1.469374	0.114928	3141.126221
7026.145957	0.835474	0.114928	3923.129639
7026.146855	0.099368	0.114928	4012.361816
7026.147784	0.087770	0.114928	4093.899902
7026.148687	0.087993	0.114928	4173.357910
7026.149587	0.087770	0.114928	4252.350586
7026.150480	0.087942	0.114928	4330.882812
7026.151428	0.087883	0.114928	4414.196289
7026.152329	0.087894	0.114928	4493.389160
7026.153229	0.087865	0.114928	4572.467773
7026.154113	0.087858	0.114928	4650.133789
7026.155051	0.087946	0.114928	4732.626953
7027.148804	1.065681	0.114424	525.380859
7027.149729	1.476156	0.114424	1890.825195
7027.150666	1.466905	0.114424	3265.315674
7027.151562	0.770588	0.114424	3955.762695
7027.152523	0.093992	0.114424	4046.088623
7027.153424	0.087704	0.114424	4125.109863
7027.154309	0.087938	0.114424	4202.935059
7027.155254	0.087850	0.114424	4285.953613
7027.156159	0.087938	0.114424	4365.537598
7027.157076	0.087781	0.114424	4446.032715
7027.157971	0.087942	0.114424	4524.740723
7027.158924	0.087788	0.114424	4608.402832
7027.159827	0.087806	0.114424	4687.691895
7027.160748	0.087883	0.114424	4768.632324
7028.213203	1.004465	0.114956	443.973633
7028.214149	1.472560	0.114956	1837.015259
7028.215059	1.468744	0.114956	3173.572266
7028.215991	0.821188	0.114956	3938.919189
7028.216881	0.098862	0.114956	4026.906738
7028.217816	0.087861	0.114956	4109.057129
7028.218718	0.087880	0.114956	4188.324707
7028.219622	0.087894	0.114956	4267.781250
7028.220509	0.087817	0.114956	4345.675293
7028.221462	0.087982	0.114956	4429.522461
7028.222371	0.087894	0.114956	4509.418457
7028.223267	0.087924	0.114956	4588.197754
7028.224198	0.087821	0.114956	4669.958984
7028.225093	0.087898	0.114956	4748.627441
7029.219284	0.999163	0.113300	445.626526
7029.220181	1.472007	0.113300	1766.016602
7029.221121	1.469158	0.113300	3147.024902
7029.222054	0.832584	0.113300	3923.825928
7029.222961	0.098741	0.113300	4013.384521
7029.223851	0.087693	0.113300	4091.431152
7029.224802	0.087935	0.113300	4175.057129
7029.225712	0.087883	0.113300	4255.030762
7029.226610	0.087979	0.113300	4334.035645
7029.227546	0.087975	0.113300	4416.379883
7029.228443	0.087975	0.113300	4495.293457
7029.229341	0.087982	0.113300	4574.301270
7029.230231	0.087982	0.113300	4652.605469
7029.231158	0.087997	0.113300	4734.178711
7030.285275	1.013353	0.115830	451.955597
7030.286182	1.472970	0.115830	1787.939209
7030.287113	1.469396	0.115830	3155.946777
7030.288014	0.857706	0.115830	3928.740234
7030.288963	0.098408	0.115830	4022.129639
7030.289859	0.087799	0.115830	4100.797852
7030.290747	0.087799	0.115830	4178.763672
7030.291685	0.087847	0.115830	4261.164062
7030.292589	0.087788	0.115830	4340.524414
7030.293511	0.087920	0.115830	4421.586426
7030.294407	0.087869	0.115830	4500.316895
7030.295356	0.087858	0.115830	4583.693848
7030.296257	0.087828	0.115830	4662.827148
7030.297147	0.087810	0.115830	4740.978027
7031.292372	1.005245	0.115742	450.349915
7031.293270	1.472234	0.115742	1772.416016
7031.294240	1.468458	0.115742	3196.820557
7031.295155	0.810769	0.115742	3938.674316
7031.296052	0.098251	0.115742	4026.805176
7031.296938	0.087821	0.115742	4104.614746
7031.297882	0.088026	0.115742	4187.711426
7031.298781	0.087872	0.115742	4266.708496
7031.299675	0.087891	0.115742	4345.282715
7031.300611	0.087847	0.115742	4427.507324
7031.301518	0.088052	0.115742	4507.370117
7031.302419	0.087799	0.115742	4586.477051
7031.303310	0.087869	0.115742	4664.768066
7031.304250	0.087964	0.115742	4747.454102
7032.355292	1.014855	0.115798	455.669739
7032.356194	1.473160	0.115798	1784.460449
7032.357124	1.469473	0.115798	3151.070068
7032.358048	0.847881	0.115798	3934.511963
7032.358945	0.100137	0.115798	4024.334717
7032.359830	0.087748	0.115798	4101.991699
7032.360779	0.087891	0.115798	4185.399902
7032.361679	0.087913	0.115798	4264.521484
7032.362579	0.087894	0.115798	4343.626465
7032.363467	0.087887	0.115798	4421.669922
7032.364406	0.087916	0.115798	4504.223145
7032.365315	0.087839	0.115798	4584.069336
7032.366215	0.087942	0.115798	4663.216797
7032.367140	0.087898	0.115798	4744.522461
7033.362902	1.001968	0.114763	446.877625
7033.363795	1.472069	0.114763	1761.435303
7033.364755	1.469059	0.114763	3171.731934
7033.365656	0.850236	0.114763	3937.794189
7033.366575	0.098943	0.114763	4028.722656
7033.367470	0.087803	0.114763	4107.306152
7033.368422	0.087880	0.114763	4190.967773
7033.369323	0.087810	0.114763	4270.084473
7033.370212	0.087876	0.114763	4348.206055
7033.371136	0.087975	0.114763	4429.494629
7033.372045	0.087814	0.114763	4509.317383
7033.372938	0.087847	0.114763	4587.764648
7033.373830	0.087935	0.114763	4666.202148
7033.374775	0.087913	0.114763	4749.279785
7034.425809	1.001678	0.116298	443.743561
7034.426705	1.471842	0.116298	1762.513916
7034.427683	1.468315	0.116298	3198.526367
7034.428606	0.796945	0.116298	3934.106201
7034.429497	0.097863	0.116298	4021.301758
7034.430442	0.087931	0.116298	4104.396484
7034.431344	0.087953	0.116298	4183.729980
7034.432240	0.087953	0.116298	4262.535645
7034.433124	0.087843	0.116298	4340.188965
7034.434059	0.088026	0.116298	4422.493164
7034.434968	0.087924	0.116298	4502.415527
7034.435862	0.087968	0.116298	4581.058594
7034.436777	0.087949	0.116298	4661.532227
7034.437706	0.088041	0.116298	4743.322266
7035.433945	1.017850	0.113905	460.068329
7035.434864	1.473647	0.113905	1814.350342
7035.435760	1.469864	0.113905	3131.348877
7035.436692	0.870963	0.113905	3943.086426
7035.437610	0.100038	0.113905	4034.921143
7035.438516	0.087795	0.113905	4114.463867
7035.439404	0.087887	0.113905	4192.507324
7035.440341	0.087931	0.113905	4274.898437
7035.441252	0.087979	0.113905	4355.046875
7035.442150	0.087887	0.113905	4433.969238
7035.443034	0.087964	0.113905	4511.729492
7035.443995	0.087964	0.113905	4596.262695
7035.444900	0.087949	0.113905	4675.856934
7035.445791	0.087931	0.113905	4754.203125
7036.496840	0.993713	0.117309	434.252747
7036.497734	1.471384	0.117309	1749.670166
7036.498710	1.468198	0.117309	3182.631592
7036.499645	0.795253	0.117309	3926.192871
7036.500532	0.097830	0.117309	4012.967773
7036.501478	0.087865	0.117309	4096.087891
7036.502392	0.087854	0.117309	4176.386230
7036.503309	0.087850	0.117309	4256.944824
7036.504199	0.087843	0.117309	4335.125000
7036.505133	0.087880	0.117309	4417.204590
7036.506052	0.087719	0.117309	4497.817871
7036.506969	0.087806	0.117309	4578.336426
7036.507863	0.087971	0.117309	4656.982910
7036.508808	0.088037	0.117309	4740.177734
7037.506557	1.018997	0.116310	500.327332
7037.507479	1.476072	0.116310	1861.265381
7037.508382	1.468213	0.116310	3187.061523
7037.509276	0.836587	0.116310	3934.970215
7037.510220	0.096775	0.116310	4026.325684
7037.511124	0.087806	0.116310	4105.702637
7037.512022	0.087825	0.116310	4184.569336
7037.512909	0.087854	0.116310	4262.495605
7037.513856	0.087938	0.116310	4345.772949
7037.514764	0.087850	0.116310	4425.541016
7037.515659	0.087869	0.116310	4504.183594
7037.516596	0.087960	0.116310	4586.602539
7037.517497	0.087916	0.116310	4665.814941
7037.518394	0.087843	0.116310	4744.610352
7038.567375	1.000620	0.117417	441.273468
7038.568276	1.472029	0.117417	1767.571411
7038.569173	1.470527	0.117417	3086.634277
7038.570137	0.858732	0.117417	3914.451660
7038.571037	0.100818	0.117417	4005.187744
7038.571935	0.087777	0.117417	4084.011475
7038.572820	0.087806	0.117417	4161.720215
7038.573746	0.087781	0.117417	4243.005371
7038.574656	0.087814	0.117417	4322.916016
7038.575552	0.087865	0.117417	4401.643066
7038.576486	0.087847	0.117417	4483.691895
7038.577390	0.087960	0.117417	4563.208008
7038.578292	0.087755	0.117417	4642.363281
7038.579187	0.087828	0.117417	4720.969727
7039.578069	1.009493	0.117450	455.281555
7039.578966	1.472681	0.117450	1776.276123
7039.579907	1.469202	0.117450	3158.794922
7039.580836	0.835093	0.117450	3934.596191
7039.581736	0.099280	0.117450	4023.947998
7039.582624	0.087748	0.117450	4101.868164
7039.583584	0.087986	0.117450	4186.334473
7039.584485	0.087924	0.117450	4265.553711
7039.585379	0.087887	0.117450	4344.124512
7039.586305	0.087968	0.117450	4425.582520
7039.587213	0.087913	0.117450	4505.407227
7039.588114	0.087751	0.117450	4584.471191
7039.589011	0.087847	0.117450	4663.269531
7039.589941	0.087960	0.117450	4745.072754
7040.638430	1.019941	0.117921	466.113190
7040.639329	1.473040	0.117921	1790.375732
7040.640287	1.468411	0.117921	3197.113037
7040.641211	0.807217	0.117921	3942.981445
7040.642113	0.097603	0.117921	4031.019043
7040.642999	0.087821	0.117921	4108.828613
7040.643957	0.088041	0.117921	4193.171875
7040.644862	0.087821	0.117921	4272.649902
7040.645753	0.087927	0.117921	4350.993164
7040.646679	0.087916	0.117921	4432.403809
7040.647588	0.087894	0.117921	4512.299805
7040.648479	0.087986	0.117921	4590.695312
7040.649369	0.087806	0.117921	4668.842773
7040.650292	0.088019	0.117921	4750.083984
7041.648587	0.990769	0.115963	430.984497
7041.649533	1.472058	0.115963	1823.551392
7041.650461	1.468488	0.115963	3186.307617
7041.651374	0.825414	0.115963	3939.910400
7041.652265	0.099441	0.115963	4028.512207
7041.653222	0.087927	0.115963	4112.658691
7041.654121	0.087946	0.115963	4191.721680
7041.655022	0.087814	0.115963	4270.841797
7041.655907	0.087946	0.115963	4348.673828
7041.656844	0.087957	0.115963	4431.088867
7041.657744	0.087770	0.115963	4510.081543
7041.658640	0.087876	0.115963	4588.818359
7041.659574	0.087891	0.115963	4670.908203
7041.660483	0.087993	0.115963	4750.894043
7042.710492	1.005256	0.118956	452.365387
7042.711389	1.472260	0.118956	1772.982178
7042.712280	1.470502	0.118956	3083.199219
7042.713247	0.850957	0.118956	3906.074707
7042.714155	0.100016	0.118956	3996.889160
7042.715051	0.087788	0.118956	4075.547363
7042.715973	0.087986	0.118956	4156.670410
7042.716886	0.088026	0.118956	4237.038086
7042.717789	0.087931	0.118956	4316.439453
7042.718683	0.087854	0.118956	4394.980957
7042.719625	0.087946	0.118956	4477.825684
7042.720526	0.087869	0.118956	4556.995117
7042.721423	0.087949	0.118956	4635.885742
7042.722309	0.087803	0.118956	4713.679199
7043.719671	1.010629	0.117530	490.154877
7043.720595	1.475760	0.117530	1853.757568
7043.721497	1.468378	0.117530	3178.234375
7043.722398	0.837931	0.117530	3933.210205
7043.723338	0.097346	0.117530	4024.715576
7043.724256	0.087711	0.117530	4105.234375
7043.725156	0.087843	0.117530	4184.292969
7043.726044	0.087744	0.117530	4262.209961
7043.727001	0.087920	0.117530	4346.349121
7043.727901	0.087894	0.117530	4425.454102
7043.728793	0.087880	0.117530	4503.842773
7043.729737	0.087946	0.117530	4586.863281
7043.730639	0.087876	0.117530	4666.127441
7043.731539	0.087894	0.117530	4745.232422
7044.782019	0.993292	0.117401	432.082123
7044.782987	1.476072	0.117401	1860.919556
7044.783906	1.468110	0.117401	3210.112793
7044.784815	0.808085	0.117401	3944.661865
7044.785733	0.098002	0.117401	4034.627441
7044.786660	0.087968	0.117401	4116.173340
7044.787567	0.087891	0.117401	4195.890137
7044.788463	0.087913	0.117401	4274.659668
7044.789410	0.087986	0.117401	4357.982422
7044.790312	0.087913	0.117401	4437.279785
7044.791211	0.087898	0.117401	4516.299805
7044.792095	0.087931	0.117401	4594.030762
7044.793028	0.088004	0.117401	4676.138672
7044.793939	0.087964	0.117401	4756.273926
7045.790687	1.020146	0.118163	467.227081
7045.791583	1.472959	0.118163	1786.998291
7045.792546	1.468630	0.118163	3201.289551
7045.793469	0.810004	0.118163	3948.922852
7045.794368	0.098053	0.118163	4037.072510
7045.795252	0.087810	0.118163	4114.696777
7045.796196	0.087979	0.118163	4197.748535
7045.797103	0.087942	0.118163	4277.511719
7045.798005	0.087883	0.118163	4356.782227
7045.798917	0.087953	0.118163	4436.995117
7045.799858	0.087990	0.118163	4519.793457
7045.800764	0.087924	0.118163	4599.452148
7045.801656	0.087938	0.118163	4677.893066
7045.802602	0.087993	0.118163	4761.134766
7046.853583	1.006417	0.118251	445.842865
7046.854489	1.472468	0.118251	1779.899170
7046.855381	1.469978	0.118251	3091.119629
7046.856364	0.825388	0.118251	3902.476074
7046.857270	0.098712	0.118251	3991.909180
7046.858167	0.087799	0.118251	4070.665039
7046.859111	0.087946	0.118251	4153.685547
7046.860012	0.087916	0.118251	4232.897949
7046.860912	0.087821	0.118251	4311.937012
7046.861798	0.087700	0.118251	4389.639160
7046.862735	0.087982	0.118251	4472.078613
7046.863634	0.087902	0.118251	4551.102051
7046.864539	0.087865	0.118251	4630.619629
7046.865431	0.087770	0.118251	4708.910156
7047.860183	1.008109	0.118489	449.616699
7047.861090	1.472281	0.118489	1784.975952
7047.861986	1.469425	0.118489	3101.580811
7047.862951	0.835422	0.118489	3907.763428
7047.863864	0.098716	0.118489	3997.890869
7047.864763	0.087686	0.118489	4076.720215
7047.865698	0.087861	0.118489	4158.870605
7047.866606	0.088019	0.118489	4238.791504
7047.867504	0.087839	0.118489	4317.671387
7047.868391	0.087766	0.118489	4395.520020
7047.869350	0.087957	0.118489	4479.870117
7047.870260	0.087894	0.118489	4559.854004
7047.871158	0.087854	0.118489	4638.747070
7047.872068	0.087828	0.118489	4718.670898
7048.925140	0.999767	0.119089	442.896698
7048.926036	1.471622	0.119089	1761.470337
7048.927005	1.468440	0.119089	3184.388672
7048.927907	0.846866	0.119089	3948.262207
7048.928799	0.100712	0.119089	4038.096924
7048.929736	0.087806	0.119089	4120.371582
7048.930631	0.087817	0.119089	4198.968262
7048.931550	0.087850	0.119089	4279.702637
7048.932446	0.087803	0.119089	4358.374023
7048.933380	0.087887	0.119089	4440.460449
7048.934298	0.087784	0.119089	4521.046387
7048.935223	0.087898	0.119089	4602.352051
7048.936110	0.087799	0.119089	4680.229980
7048.937063	0.087803	0.119089	4763.905762
7049.932278	1.045671	0.117603	502.967926
7049.933203	1.475728	0.117603	1868.015869
7049.934112	1.468158	0.117603	3202.571533
7049.935006	0.833097	0.117603	3947.360107
7049.935953	0.096969	0.117603	4039.189697
7049.936866	0.087810	0.117603	4119.360352
7049.937757	0.087847	0.117603	4197.631836
7049.938694	0.087869	0.117603	4279.964844
7049.939597	0.087927	0.117603	4359.363281
7049.940494	0.087872	0.117603	4438.184570
7049.941384	0.087931	0.117603	4516.442871
7049.942364	0.087942	0.117603	4602.625977
7049.943263	0.087938	0.117603	4681.682617
7049.944162	0.087949	0.117603	4760.749023
7050.996711	1.023204	0.119371	469.650787
7050.997611	1.473182	0.119371	1795.514893
7050.998560	1.468953	0.119371	3189.550781
7050.999484	0.817302	0.119371	3944.738037
7051.000373	0.098727	0.119371	4032.506104
7051.001263	0.087751	0.119371	4110.604980
7051.002206	0.087828	0.119371	4193.427246
7051.003113	0.087891	0.119371	4273.144043
7051.004016	0.087832	0.119371	4352.456543
7051.004905	0.087810	0.119371	4430.519531
7051.005851	0.087795	0.119371	4513.574219
7051.006758	0.087872	0.119371	4593.274414
7051.007647	0.087817	0.119371	4671.344238
7051.008593	0.087946	0.119371	4754.540527
7052.001737	0.993464	0.120064	435.137360
7052.002700	1.475475	0.120064	1856.019653
7052.003598	1.468484	0.120064	3174.718262
7052.004524	0.821309	0.120064	3935.250000
7052.005429	0.098390	0.120064	4024.292969
7052.006373	0.087825	0.120064	4107.199707
7052.007279	0.087737	0.120064	4186.689453
7052.008168	0.087876	0.120064	4264.811035
7052.009097	0.087865	0.120064	4346.437500
7052.010001	0.087916	0.120064	4425.913574
7052.010896	0.087825	0.120064	4504.516602
7052.011784	0.087839	0.120064	4582.518066
7052.012725	0.087920	0.120064	4665.250488
7052.013621	0.087869	0.120064	4743.980957
7053.068293	1.017440	0.119528	505.667786
7053.069208	1.476335	0.119528	1856.514648
7053.070125	1.467195	0.119528	3201.932129
7053.071037	0.792330	0.119528	3924.537354
7053.071979	0.095438	0.119528	4014.440186
7053.072879	0.087821	0.119528	4093.479004
7053.073785	0.087810	0.119528	4173.035156
7053.074672	0.087891	0.119528	4250.994141
7053.075609	0.088052	0.119528	4333.498535
7053.076512	0.087898	0.119528	4412.870605
7053.077400	0.087883	0.119528	4490.911133
7053.078339	0.087971	0.119528	4573.516113
7053.079238	0.088055	0.119528	4652.677734
7053.080150	0.087744	0.119528	4732.700195
7054.072275	1.001569	0.120950	440.690155
7054.073194	1.472889	0.120950	1794.275513
7054.074096	1.469916	0.120950	3120.139648
7054.075054	0.837180	0.120950	3922.158203
7054.075958	0.098837	0.120950	4011.506592
7054.076858	0.087773	0.120950	4090.502686
7054.077741	0.087817	0.120950	4168.045410
7054.078689	0.087960	0.120950	4251.431641
7054.079591	0.087850	0.120950	4330.672852
7054.080490	0.087788	0.120950	4409.594238
7054.081379	0.087806	0.120950	4487.654297
7054.082323	0.087964	0.120950	4570.692383
7054.083226	0.087953	0.120950	4650.113770
7054.084121	0.087847	0.120950	4728.736328
7055.139799	1.009519	0.120177	452.264496
7055.140700	1.472754	0.120177	1779.215820
7055.141593	1.469703	0.120177	3091.660889
7055.142564	0.842589	0.120177	3909.814941
7055.143470	0.099426	0.120177	3999.895020
7055.144360	0.087715	0.120177	4077.961182
7055.145297	0.087828	0.120177	4160.256348
7055.146205	0.087814	0.120177	4239.991211
7055.147101	0.087810	0.120177	4318.668945
7055.147989	0.087905	0.120177	4396.729004
7055.148931	0.087931	0.120177	4479.560059
7055.149838	0.087740	0.120177	4559.140625
7055.150737	0.087865	0.120177	4638.131348
7055.151628	0.087748	0.120177	4716.314453
7056.143321	1.001829	0.120874	446.815521
7056.144217	1.471809	0.120874	1765.556396
7056.145195	1.468275	0.120874	3201.529541
7056.146108	0.809194	0.120874	3940.323975
7056.147004	0.097950	0.120874	4028.087646
7056.147914	0.087686	0.120874	4107.881348
7056.148840	0.087938	0.120874	4189.312012
7056.149747	0.087828	0.120874	4268.972168
7056.150643	0.087872	0.120874	4347.705566
7056.151573	0.087931	0.120874	4429.481445
7056.152471	0.087997	0.120874	4508.502441
7056.153370	0.087781	0.120874	4587.417480
7056.154257	0.087839	0.120874	4665.331055
7056.155198	0.087960	0.120874	4748.101562
7057.212887	1.008981	0.122453	457.068268
7057.213780	1.472589	0.122453	1772.090332
7057.214727	1.468997	0.122453	3163.229980
7057.215656	0.830339	0.122453	3934.615234
7057.216556	0.099060	0.122453	4023.769287
7057.217445	0.087744	0.122453	4101.773926
7057.218399	0.087931	0.122453	4185.660156
7057.219302	0.087880	0.122453	4265.015625
7057.220202	0.087854	0.122453	4344.083984
7057.221105	0.087979	0.122453	4423.528809
7057.222033	0.087986	0.122453	4505.179687
7057.222944	0.087865	0.122453	4585.224609
7057.223833	0.087784	0.122453	4663.265137
7057.224763	0.087957	0.122453	4745.064941
7058.213838	1.002195	0.120640	440.965698
7058.214739	1.471827	0.120640	1767.082153
7058.215703	1.468290	0.120640	3182.513428
7058.216619	0.822231	0.120640	3935.677490
7058.217506	0.099298	0.120640	4023.754883
7058.218448	0.087839	0.120640	4106.499512
7058.219355	0.087836	0.120640	4186.166504
7058.220255	0.087997	0.120640	4265.363770
7058.221146	0.087872	0.120640	4343.658203
7058.222101	0.087916	0.120640	4427.618164
7058.222998	0.087839	0.120640	4506.410156
7058.223888	0.087924	0.120640	4584.662109
7058.224802	0.087828	0.120640	4664.937012
7058.225745	0.087949	0.120640	4747.873047
7059.282392	1.015071	0.120938	454.751709
7059.283297	1.473080	0.120938	1787.888916
7059.284197	1.469634	0.120938	3110.559326
7059.285162	0.831573	0.120938	3913.027832
7059.286071	0.098654	0.120938	4002.703857
7059.286976	0.087700	0.120938	4082.072510
7059.287905	0.087894	0.120938	4163.726074
7059.288805	0.087891	0.120938	4242.827637
7059.289703	0.087891	0.120938	4321.753418
7059.290589	0.087836	0.120938	4399.575684
7059.291514	0.087931	0.120938	4480.911621
7059.292408	0.087905	0.120938	4559.499023
7059.293314	0.087920	0.120938	4639.154297
7059.294208	0.087814	0.120938	4717.659668
7060.284414	1.029712	0.121736	506.618286
7060.285336	1.476559	0.121736	1868.005615
7060.286249	1.467964	0.121736	3208.256836
7060.287151	0.812556	0.121736	3941.182617
7060.288099	0.095446	0.121736	4031.665039
7060.289002	0.087924	0.121736	4111.060059
7060.289903	0.087909	0.121736	4190.266113
7060.290810	0.087847	0.121736	4269.942871
7060.291729	0.088052	0.121736	4350.862305
7060.292640	0.087832	0.121736	4430.877441
7060.293537	0.087927	0.121736	4509.748047
7060.294463	0.087847	0.121736	4591.094238
7060.295369	0.088000	0.121736	4670.822754
7060.296270	0.087990	0.121736	4750.101074
7061.354446	1.010043	0.119903	449.469055
7061.355418	1.475947	0.119903	1884.089844
7061.356321	1.467920	0.119903	3209.621582
7061.357215	0.832489	0.119903	3953.866699
7061.358156	0.098313	0.119903	4046.379150
7061.359072	0.087806	0.119903	4126.809570
7061.359978	0.087902	0.119903	4206.448242
7061.360871	0.087927	0.119903	4284.967285
7061.361832	0.088026	0.119903	4369.560547
7061.362734	0.087905	0.119903	4448.851074
7061.363622	0.087949	0.119903	4526.950195
7061.364526	0.087971	0.119903	4606.476074
7061.365443	0.088008	0.119903	4687.179199
7061.366337	0.087854	0.119903	4765.720703
7062.354912	1.022527	0.122747	464.227203
7062.355842	1.474589	0.122747	1835.594482
7062.356744	1.469231	0.122747	3160.840820
7062.357700	0.794645	0.122747	3920.521240
7062.358599	0.097529	0.122747	4008.200195
7062.359491	0.087806	0.122747	4086.523437
7062.360376	0.087913	0.122747	4164.326172
7062.361312	0.088055	0.122747	4246.746094
7062.362225	0.087847	0.122747	4326.950195
7062.363120	0.087902	0.122747	4405.622070
7062.364046	0.088030	0.122747	4487.137695
7062.364956	0.087931	0.122747	4567.154785
7062.365862	0.087817	0.122747	4646.717285
7062.366757	0.087876	0.122747	4725.366211
7063.425000	1.037552	0.121091	486.612122
7063.425911	1.474171	0.121091	1829.582031
7063.426805	1.469451	0.121091	3143.270996
7063.427761	0.819188	0.121091	3926.415039
7063.428664	0.098148	0.121091	4015.042969
7063.429573	0.087828	0.121091	4094.878906
7063.430472	0.088011	0.121091	4174.000977
7063.431418	0.087883	0.121091	4257.138672
7063.432323	0.087795	0.121091	4336.593750
7063.433216	0.087898	0.121091	4415.086426
7063.434157	0.087942	0.121091	4497.839844
7063.435052	0.087883	0.121091	4576.495605
7063.435956	0.087931	0.121091	4655.985352
7063.436846	0.087847	0.121091	4734.168945
7064.427526	1.065710	0.123367	528.592346
7064.428444	1.476072	0.123367	1883.626221
7064.429348	1.468330	0.123367	3210.996582
7064.430243	0.823912	0.123367	3948.398193
7064.431186	0.096526	0.123367	4039.422119
7064.432092	0.087770	0.123367	4118.941406
7064.432989	0.087847	0.123367	4197.739746
7064.433913	0.087946	0.123367	4279.001465
7064.434824	0.087964	0.123367	4359.136719
7064.435723	0.087858	0.123367	4438.120605
7064.436613	0.087836	0.123367	4516.294434
7064.437557	0.087880	0.123367	4599.252930
7064.438458	0.087931	0.123367	4678.478516
7064.439354	0.087891	0.123367	4757.228516
7065.496011	0.995328	0.121361	437.944458
7065.496903	1.471256	0.121361	1750.304932
7065.497867	1.469103	0.121361	3166.520020
7065.498788	0.836400	0.121361	3936.844482
7065.499677	0.099796	0.121361	4025.563232
7065.500618	0.087777	0.121361	4108.161621
7065.501526	0.087982	0.121361	4188.049316
7065.502427	0.087920	0.121361	4267.265137
7065.503313	0.087883	0.121361	4345.129883
7065.504268	0.087986	0.121361	4429.156250
7065.505172	0.087865	0.121361	4508.586426
7065.506065	0.087817	0.121361	4587.007324
7065.506976	0.087916	0.121361	4667.099121
7065.507891	0.087909	0.121361	4747.535645
7066.497988	0.998818	0.122739	434.485962
7066.498946	1.475032	0.122739	1847.566406
7066.499882	1.467664	0.122739	3221.299561
7066.500788	0.807568	0.122739	3952.956543
7066.501727	0.097943	0.122739	4044.925049
7066.502634	0.087817	0.122739	4124.575195
7066.503550	0.087843	0.122739	4205.039551
7066.504437	0.087993	0.122739	4283.089355
7066.505394	0.087968	0.122739	4367.274414
7066.506297	0.087883	0.122739	4446.632812
7066.507216	0.087931	0.122739	4527.441406
7066.508103	0.087744	0.122739	4605.270508
7066.509035	0.087902	0.122739	4687.194824
7066.509956	0.087814	0.122739	4768.071289
7067.568088	1.009175	0.120270	449.082794
7067.568989	1.472260	0.120270	1775.588623
7067.569884	1.470260	0.120270	3091.471191
7067.570849	0.853524	0.120270	3915.122070
7067.571756	0.100734	0.120270	4006.487549
7067.572650	0.087777	0.120270	4084.960205
7067.573577	0.087872	0.120270	4166.417969
7067.574495	0.087982	0.120270	4247.185547
7067.575398	0.087817	0.120270	4326.484863
7067.576289	0.087883	0.120270	4404.789062
7067.577225	0.087993	0.120270	4487.150879
7067.578132	0.087938	0.120270	4566.910645
7067.579037	0.087902	0.120270	4646.461426
7067.579926	0.087993	0.120270	4724.687500
7068.569051	1.007904	0.124834	451.541016
7068.569949	1.472230	0.124834	1773.603760
7068.570905	1.468938	0.124834	3177.908447
7068.571818	0.834499	0.124834	3939.806396
7068.572715	0.099393	0.124834	4028.962158
7068.573653	0.087839	0.124834	4111.355469
7068.574557	0.087832	0.124834	4190.755859
7068.575458	0.087927	0.124834	4269.978516
7068.576350	0.087949	0.124834	4348.429199
7068.577300	0.087924	0.124834	4431.956543
7068.578211	0.087957	0.124834	4512.084961
7068.579102	0.087905	0.124834	4590.408691
7068.580017	0.087814	0.124834	4670.758301
7068.580932	0.088022	0.124834	4751.298828
7069.638617	1.004971	0.122127	453.241760
7069.639510	1.471831	0.122127	1767.586914
7069.640469	1.468396	0.122127	3175.778809
7069.641390	0.818665	0.122127	3929.768799
7069.642291	0.098236	0.122127	4018.279541
7069.643200	0.087726	0.122127	4098.022461
7069.644146	0.087913	0.122127	4181.187988
7069.645059	0.087806	0.122127	4261.355469
7069.645955	0.087960	0.122127	4340.167969
7069.646902	0.087858	0.122127	4423.369141
7069.647802	0.087953	0.122127	4502.526855
7069.648698	0.087883	0.122127	4581.270508
7069.649583	0.087795	0.122127	4658.969238
7069.650519	0.088041	0.122127	4741.375488
7070.641108	1.002495	0.124801	442.100311
7070.642012	1.472095	0.124801	1772.873901
7070.642906	1.470158	0.124801	3087.194824
7070.643874	0.846658	0.124801	3906.759521
7070.644784	0.099976	0.124801	3997.737305
7070.645674	0.087722	0.124801	4075.810059
7070.646604	0.087920	0.124801	4157.575684
7070.647509	0.088026	0.124801	4237.239258
7070.648408	0.087880	0.124801	4316.243164
7070.649299	0.087806	0.124801	4394.478516
7070.650239	0.087898	0.124801	4477.102539
7070.651151	0.087968	0.124801	4557.329102
7070.652054	0.087836	0.124801	4636.644531
7070.652939	0.087927	0.124801	4714.459961
7071.710676	1.009373	0.122171	447.152069
7071.711597	1.473446	0.122171	1804.195923
7071.712498	1.469872	0.122171	3128.550293
7071.713458	0.845420	0.122171	3940.153320
7071.714359	0.100386	0.122171	4030.600830
7071.715258	0.087762	0.122171	4109.499023
7071.716141	0.087905	0.122171	4187.119141
7071.717078	0.087927	0.122171	4269.506836
7071.717985	0.087806	0.122171	4349.147461
7071.718884	0.087795	0.122171	4428.075684
7071.719817	0.087850	0.122171	4510.040039
7071.720721	0.088000	0.122171	4589.592285
7071.721630	0.087825	0.122171	4669.424805
7071.722524	0.087850	0.122171	4747.962891
7072.710620	1.010457	0.125321	451.674072
7072.711548	1.473838	0.125321	1819.395630
7072.712444	1.469341	0.125321	3135.925049
7072.713394	0.827142	0.125321	3921.710205
7072.714297	0.098694	0.125321	4010.830811
7072.715204	0.087704	0.125321	4090.378174
7072.716096	0.087850	0.125321	4168.740723
7072.717052	0.087968	0.125321	4252.837891
7072.717961	0.087938	0.125321	4332.773926
7072.718858	0.087839	0.125321	4411.565918
7072.719784	0.087938	0.125321	4492.996582
7072.720685	0.087935	0.125321	4572.225586
7072.721589	0.087748	0.125321	4651.549805
7072.722472	0.087902	0.125321	4729.166992
7073.782724	0.988400	0.122155	426.988678
7073.783672	1.474175	0.122155	1824.506470
7073.784608	1.468184	0.122155	3198.726074
7073.785520	0.818723	0.122155	3945.401611
7073.786405	0.099305	0.122155	4033.286865
7073.787354	0.087986	0.122155	4116.785645
7073.788253	0.087744	0.122155	4195.667480
7073.789140	0.087902	0.122155	4273.636230
7073.790078	0.087938	0.122155	4356.122070
7073.790977	0.087902	0.122155	4435.145508
7073.791887	0.087803	0.122155	4515.045898
7073.792781	0.087861	0.122155	4593.593750
7073.793721	0.087982	0.122155	4676.296875
7073.794635	0.087902	0.122155	4756.639160
7074.782674	1.017158	0.126836	452.635437
7074.783651	1.476976	0.126836	1895.641357
7074.784568	1.467506	0.126836	3241.344482
7074.785471	0.793099	0.126836	3957.513184
7074.786407	0.096669	0.126836	4047.995117
7074.787310	0.087748	0.126836	4127.231445
7074.788211	0.087909	0.126836	4206.437500
7074.789097	0.087762	0.126836	4284.194824
7074.790032	0.087905	0.126836	4366.386230
7074.790945	0.087839	0.126836	4446.583496
7074.791844	0.087792	0.126836	4525.508301
7074.792766	0.087905	0.126836	4606.557129
7074.793678	0.088055	0.126836	4686.863770
7074.794582	0.087902	0.126836	4766.326660
7075.852822	1.036644	0.124068	529.725281
7075.853734	1.476837	0.124068	1876.600830
7075.854640	1.467469	0.124068	3206.128174
7075.855540	0.810868	0.124068	3935.909180
7075.856484	0.095153	0.124068	4025.733154
7075.857390	0.087883	0.124068	4105.355469
7075.858300	0.087839	0.124068	4185.289062
7075.859186	0.087858	0.124068	4263.130859
7075.860132	0.087935	0.124068	4346.316895
7075.861040	0.087737	0.124068	4425.981934
7075.861930	0.087847	0.124068	4504.165527
7075.862875	0.087927	0.124068	4587.256836
7075.863776	0.087924	0.124068	4666.476074
7075.864678	0.087869	0.124068	4745.733398
7076.854732	0.993369	0.126578	435.095703
7076.855627	1.471490	0.126578	1752.079590
7076.856600	1.468652	0.126578	3181.078369
7076.857523	0.816650	0.126578	3934.846680
7076.858422	0.098086	0.126578	4023.025879
7076.859350	0.087891	0.126578	4104.588379
7076.860251	0.087927	0.126578	4183.811035
7076.861147	0.087869	0.126578	4262.541504
7076.862033	0.087836	0.126578	4340.363770
7076.862976	0.087982	0.126578	4423.331055
7076.863881	0.087957	0.126578	4502.931641
7076.864779	0.087880	0.126578	4581.847656
7076.865667	0.087957	0.126578	4659.953125
7076.866615	0.087986	0.126578	4743.363770
7077.923281	1.003945	0.124334	445.751740
7077.924198	1.473142	0.124334	1796.623047
7077.925103	1.469722	0.124334	3126.721191
7077.926056	0.837817	0.124334	3925.161133
7077.926956	0.099492	0.124334	4014.704102
7077.927857	0.087755	0.124334	4093.771484
7077.928747	0.087968	0.124334	4172.062500
7077.929694	0.088004	0.124334	4255.402344
7077.930597	0.087997	0.124334	4334.863281
7077.931492	0.087938	0.124334	4413.567871
7077.932407	0.087927	0.124334	4494.021484
7077.933338	0.087990	0.124334	4575.939941
7077.934246	0.087839	0.124334	4655.698242
7077.935138	0.087924	0.124334	4734.125977
7078.925262	1.000565	0.126014	445.251495
7078.926158	1.471674	0.126014	1763.870972
7078.927148	1.467803	0.126014	3216.995605
7078.928062	0.798541	0.126014	3946.862305
7078.928949	0.097668	0.126014	4033.494141
7078.929862	0.087872	0.126014	4113.721680
7078.930797	0.087770	0.126014	4195.786621
7078.931689	0.087777	0.126014	4274.083984
7078.932581	0.087920	0.126014	4352.508789
7078.933510	0.087898	0.126014	4434.166016
7078.934417	0.087887	0.126014	4513.879395
7078.935334	0.087832	0.126014	4594.421387
7078.936220	0.087927	0.126014	4672.324707
7078.937179	0.087861	0.126014	4756.583496
7079.995909	1.058507	0.122747	528.195007
7079.996830	1.476735	0.122747	1888.267578
7079.997748	1.467502	0.122747	3235.434814
7079.998650	0.790089	0.122747	3948.095215
7079.999602	0.094977	0.122747	4038.513184
7080.000508	0.087843	0.122747	4118.099121
7080.001401	0.087916	0.122747	4196.608398
7080.002344	0.088004	0.122747	4279.596191
7080.003244	0.087913	0.122747	4358.717773
7080.004138	0.087927	0.122747	4437.324707
7080.005026	0.087982	0.122747	4515.453125
7080.005950	0.087869	0.122747	4596.643555
7080.006860	0.088019	0.122747	4676.740723
7080.007765	0.087847	0.122747	4756.242187
7080.995859	1.071691	0.127170	544.418884
7080.996769	1.476442	0.127170	1887.980713
7080.997674	1.468015	0.127170	3216.534424
7080.998573	0.812754	0.127170	3947.200195
7080.999522	0.096167	0.127170	4038.462646
7081.000420	0.087935	0.127170	4117.427734
7081.001317	0.087902	0.127170	4196.275391
7081.002250	0.087880	0.127170	4278.267090
7081.003158	0.087986	0.127170	4358.158203
7081.004056	0.087935	0.127170	4437.123535
7081.004943	0.087960	0.127170	4515.144043
7081.005900	0.087905	0.127170	4599.269531
7081.006798	0.087817	0.127170	4678.129395
7081.007693	0.087905	0.127170	4756.804687
7082.065865	0.998251	0.123130	439.230286
7082.066824	1.475592	0.123130	1854.322998
7082.067742	1.468033	0.123130	3201.977539
7082.068640	0.834163	0.123130	3951.055664
7082.069570	0.099862	0.123130	4043.927490
7082.070488	0.087825	0.123130	4124.550781
7082.071377	0.087839	0.123130	4202.640137
7082.072264	0.087869	0.123130	4280.579590
7082.073204	0.087986	0.123130	4363.286133
7082.074097	0.087847	0.123130	4441.733398
7082.075020	0.087920	0.123130	4522.883301
7082.075923	0.087891	0.123130	4602.248535
7082.076866	0.087938	0.123130	4685.174316
7082.077767	0.087869	0.123130	4764.343750
7083.067845	0.990154	0.127279	428.736603
7083.068801	1.472757	0.127279	1836.692749
7083.069716	1.468528	0.127279	3180.395752
7083.070634	0.830028	0.127279	3942.361572
7083.071521	0.099913	0.127279	4030.984619
7083.072483	0.087909	0.127279	4115.553223
7083.073381	0.087942	0.127279	4194.524902
7083.074281	0.087924	0.127279	4273.656250
7083.075192	0.088019	0.127279	4353.841309
7083.076122	0.087935	0.127279	4435.620605
7083.077031	0.087931	0.127279	4515.549805
7083.077928	0.087964	0.127279	4594.453613
7083.078853	0.088037	0.127279	4675.887695
7083.079760	0.088052	0.127279	4755.750488
7084.136406	0.998672	0.125313	439.415649
7084.137311	1.472091	0.125313	1771.658081
7084.138204	1.470403	0.125313	3084.727783
7084.139177	0.850474	0.125313	3912.238770
7084.140086	0.100507	0.125313	4003.599365
7084.140981	0.087876	0.125313	4082.248291
7084.141907	0.087964	0.125313	4163.702637
7084.142816	0.087964	0.125313	4243.661621
7084.143710	0.087667	0.125313	4322.036133
7084.144596	0.087810	0.125313	4399.835937
7084.145526	0.087916	0.125313	4481.598145
7084.146433	0.087850	0.125313	4561.278320
7084.147342	0.087814	0.125313	4641.101074
7084.148229	0.087784	0.125313	4718.965820
7085.139404	1.002799	0.127956	441.231567
7085.140382	1.475764	0.127956	1884.528931
7085.141309	1.467535	0.127956	3244.934082
7085.142209	0.787529	0.127956	3953.710449
7085.143137	0.097244	0.127956	4043.952637
7085.144053	0.087799	0.127956	4124.376465
7085.144978	0.087902	0.127956	4205.685547
7085.145864	0.087905	0.127956	4283.569824
7085.146822	0.087869	0.127956	4367.748047
7085.147739	0.087803	0.127956	4448.263184
7085.148659	0.087854	0.127956	4529.088867
7085.149549	0.087894	0.127956	4607.314941
7085.150496	0.087810	0.127956	4690.471191
7085.151420	0.087942	0.127956	4771.729492
7086.207431	0.991545	0.124934	432.313782
7086.208326	1.471011	0.124934	1748.868408
7086.209313	1.468326	0.124934	3198.106445
7086.210229	0.811670	0.124934	3941.596191
7086.211119	0.098188	0.124934	4028.983887
7086.212035	0.087678	0.124934	4109.297363
7086.212943	0.087979	0.124934	4189.181641
7086.213840	0.087832	0.124934	4267.966797
7086.214727	0.087946	0.124934	4345.974609
7086.215656	0.088008	0.124934	4427.733887
7086.216571	0.087891	0.124934	4508.153809
7086.217474	0.087949	0.124934	4587.571777
7086.218365	0.087850	0.124934	4665.846680
7086.219318	0.087942	0.124934	4749.655273
7087.209953	1.021476	0.128890	467.835907
7087.210851	1.473340	0.128890	1790.895020
7087.211792	1.468682	0.128890	3172.924316
7087.212724	0.810560	0.128890	3928.366455
7087.213623	0.097987	0.128890	4016.456787
7087.214513	0.087708	0.128890	4094.516602
7087.215459	0.087825	0.128890	4177.598633
7087.216373	0.087847	0.128890	4257.890625
7087.217271	0.087927	0.128890	4336.849121
7087.218193	0.087894	0.128890	4417.887695
7087.219098	0.087891	0.128890	4497.428711
7087.220009	0.087946	0.128890	4577.546875
7087.220901	0.087913	0.128890	4655.964844
7087.221827	0.087986	0.128890	4737.439941
7088.277965	1.009186	0.125700	445.050934
7088.278951	1.477335	0.125700	1901.703247
7088.279860	1.467609	0.125700	3235.759521
7088.280759	0.806177	0.125700	3960.512451
7088.281711	0.097006	0.125700	4052.861816
7088.282619	0.087894	0.125700	4132.669922
7088.283518	0.087913	0.125700	4211.703125
7088.284402	0.087825	0.125700	4289.340332
7088.285331	0.087905	0.125700	4371.004395
7088.286240	0.087916	0.125700	4450.920410
7088.287138	0.087839	0.125700	4529.800293
7088.288050	0.087876	0.125700	4609.943359
7088.288970	0.087960	0.125700	4690.866699
7088.289874	0.087799	0.125700	4770.237305
7089.282520	1.013423	0.127388	454.013428
7089.283428	1.473193	0.127388	1791.673096
7089.284324	1.470040	0.127388	3108.829102
7089.285294	0.829915	0.127388	3913.846191
7089.286200	0.098870	0.127388	4003.422119
7089.287095	0.087773	0.127388	4081.979248
7089.288022	0.087924	0.127388	4163.484375
7089.288929	0.087964	0.127388	4243.267578
7089.289837	0.087949	0.127388	4323.125488
7089.290729	0.087891	0.127388	4401.523926
7089.291657	0.087913	0.127388	4483.106934
7089.292567	0.087869	0.127388	4563.067383
7089.293471	0.087957	0.127388	4642.580078
7089.294361	0.087898	0.127388	4720.809082
7090.348509	1.012372	0.126340	453.542542
7090.349431	1.473160	0.126340	1811.796387
7090.350329	1.469561	0.126340	3131.461670
7090.351283	0.838539	0.126340	3931.427734
7090.352183	0.098467	0.126340	4020.047852
7090.353087	0.087784	0.126340	4099.404785
7090.353984	0.087836	0.126340	4178.193359
7090.354917	0.087968	0.126340	4260.267090
7090.355821	0.087814	0.126340	4339.650879
7090.356723	0.087916	0.126340	4418.951172
7090.357609	0.087847	0.126340	4496.783203
7090.358563	0.088000	0.126340	4580.735840
7090.359465	0.087946	0.126340	4660.062500
7090.360355	0.087968	0.126340	4738.353516
7091.355136	1.042042	0.127706	513.726807
7091.356061	1.476467	0.127706	1879.458984
7091.356968	1.468077	0.127706	3211.005127
7091.357868	0.813065	0.127706	3942.763672
7091.358821	0.095248	0.127706	4033.534912
7091.359720	0.087788	0.127706	4112.456543
7091.360613	0.087902	0.127706	4190.952637
7091.361527	0.087964	0.127706	4271.351562
7091.362449	0.088048	0.127706	4352.531738
7091.363347	0.087968	0.127706	4431.526367
7091.364237	0.087894	0.127706	4509.752441
7091.365181	0.087898	0.127706	4592.728027
7091.366095	0.087909	0.127706	4673.076660
7091.366996	0.087927	0.127706	4752.299316
7092.419037	1.017085	0.125780	460.739471
7092.419936	1.473051	0.125780	1785.011963
7092.420834	1.469440	0.125780	3104.568848
7092.421816	0.811871	0.125780	3901.826660
7092.422725	0.097639	0.125780	3990.580566
7092.423624	0.087832	0.125780	4069.541504
7092.424565	0.087997	0.125780	4152.346680
7092.425465	0.087898	0.125780	4231.455078
7092.426365	0.087905	0.125780	4310.569824
7092.427253	0.087909	0.125780	4388.632812
7092.428204	0.087913	0.125780	4472.237793
7092.429109	0.087828	0.125780	4551.722656
7092.430005	0.087865	0.125780	4630.449707
7092.430909	0.087913	0.125780	4709.922852
7093.426636	0.994658	0.127601	435.660278
7093.427583	1.471816	0.127601	1829.470459
7093.428501	1.469070	0.127601	3178.076660
7093.429423	0.827293	0.127601	3940.840332
7093.430313	0.099514	0.127601	4029.407959
7093.431252	0.087821	0.127601	4111.872070
7093.432151	0.087920	0.127601	4190.912109
7093.433051	0.087858	0.127601	4269.983887
7093.433941	0.087729	0.127601	4348.062988
7093.434901	0.087949	0.127601	4432.494141
7093.435806	0.087887	0.127601	4512.031738
7093.436705	0.087847	0.127601	4591.005859
7093.437634	0.087883	0.127601	4672.649414
7093.438531	0.087799	0.127601	4751.405273
7094.489056	1.015203	0.127952	458.871582
7094.489951	1.472520	0.127952	1776.776489
7094.490844	1.470300	0.127952	3089.754639
7094.491816	0.844486	0.127952	3910.595215
7094.492709	0.100265	0.127952	4000.131836
7094.493598	0.087729	0.127952	4078.123291
7094.494508	0.087942	0.127952	4158.150391
7094.495438	0.087942	0.127952	4239.936523
7094.496343	0.087806	0.127952	4319.401367
7094.497235	0.087861	0.127952	4397.773437
7094.498162	0.087931	0.127952	4479.285156
7094.499070	0.087869	0.127952	4559.069824
7094.499965	0.087869	0.127952	4637.712402
7094.500850	0.087876	0.127952	4715.482422
7095.498208	1.012291	0.129724	453.506500
7095.499131	1.473278	0.129724	1813.341675
7095.500026	1.469648	0.129724	3128.677246
7095.500980	0.827970	0.129724	3918.560547
7095.501887	0.098375	0.129724	4007.786865
7095.502792	0.087737	0.129724	4087.188721
7095.503683	0.087876	0.129724	4165.486328
7095.504638	0.087843	0.129724	4249.376465
7095.505542	0.087854	0.129724	4328.796387
7095.506436	0.087814	0.129724	4407.301758
7095.507362	0.087887	0.129724	4488.685059
7095.508273	0.087975	0.129724	4568.830078
7095.509181	0.087784	0.129724	4648.538086
7095.510073	0.087847	0.129724	4726.897461
7096.560098	1.027647	0.128556	471.689758
7096.561003	1.473541	0.128556	1805.244629
7096.561966	1.467843	0.128556	3218.777344
7096.562881	0.779022	0.128556	3931.582520
7096.563802	0.096017	0.128556	4020.014160
7096.564692	0.087810	0.128556	4098.165039
7096.565646	0.087733	0.128556	4181.862305
7096.566539	0.087839	0.128556	4260.302734
7096.567427	0.087806	0.128556	4338.274902
7096.568357	0.087916	0.128556	4420.037109
7096.569259	0.087916	0.128556	4499.337402
7096.570183	0.087781	0.128556	4580.446777
7096.571071	0.087902	0.128556	4658.503418
7096.572015	0.087887	0.128556	4741.468750
7097.569746	1.000807	0.127585	443.357422
7097.570699	1.472985	0.127585	1847.111816
7097.571611	1.468370	0.127585	3186.265625
7097.572523	0.826117	0.127585	3939.684326
7097.573414	0.099500	0.127585	4028.338379
7097.574361	0.087964	0.127585	4111.640137
7097.575264	0.087825	0.127585	4190.945801
7097.576165	0.087898	0.127585	4270.142090
7097.577074	0.087924	0.127585	4350.064453
7097.577988	0.087949	0.127585	4430.450195
7097.578899	0.087913	0.127585	4510.538574
7097.579788	0.087869	0.127585	4588.653809
7097.580713	0.087938	0.127585	4669.996582
7097.581617	0.087913	0.127585	4749.469727
7098.630666	1.054882	0.129003	528.495667
7098.631581	1.476321	0.129003	1879.329102
7098.632486	1.467752	0.129003	3207.644043
7098.633384	0.824169	0.129003	3947.747559
7098.634341	0.095823	0.129003	4039.449951
7098.635239	0.087865	0.129003	4118.352539
7098.636140	0.087876	0.129003	4197.528809
7098.637059	0.087865	0.129003	4278.276855
7098.637972	0.087902	0.129003	4358.531250
7098.638874	0.087777	0.129003	4437.706055
7098.639771	0.087792	0.129003	4516.455078
7098.640710	0.087898	0.129003	4598.991211
7098.641614	0.087982	0.129003	4678.527344
7098.642516	0.087828	0.129003	4757.748535
7099.641826	1.015891	0.129168	462.230499
7099.642724	1.473029	0.129168	1785.010132
7099.643620	1.470121	0.129168	3102.238281
7099.644603	0.819935	0.129168	3908.234619
7099.645492	0.098643	0.129168	3995.927979
7099.646406	0.087700	0.129168	4076.085937
7099.647297	0.087931	0.129168	4154.432617
7099.648250	0.087964	0.129168	4238.262207
7099.649157	0.087927	0.129168	4318.012207
7099.650049	0.087935	0.129168	4396.449707
7099.650983	0.087814	0.129168	4478.467773
7099.651898	0.087817	0.129168	4558.820801
7099.652800	0.087861	0.129168	4638.071777
7099.653689	0.087942	0.129168	4716.251953
7100.701656	1.011574	0.128987	458.242828
7100.702559	1.473025	0.128987	1788.384277
7100.703491	1.469304	0.128987	3157.775879
7100.704423	0.833185	0.128987	3934.304199
7100.705331	0.099159	0.128987	4024.340576
7100.706221	0.087678	0.128987	4102.374023
7100.707157	0.087935	0.128987	4184.680664
7100.708052	0.087850	0.128987	4263.306641
7100.708953	0.087821	0.128987	4342.433594
7100.709840	0.087847	0.128987	4420.353516
7100.710782	0.087953	0.128987	4503.205078
7100.711689	0.087931	0.128987	4582.958496
7100.712586	0.087861	0.128987	4661.770020
7100.713508	0.087953	0.128987	4742.862793
7101.712334	1.000089	0.129007	440.039185
7101.713231	1.471754	0.129007	1760.202637
7101.714195	1.468568	0.129007	3175.902344
7101.715123	0.822946	0.129007	3939.595703
7101.716018	0.098650	0.129007	4027.887451
7101.716957	0.087887	0.129007	4110.413086
7101.717862	0.087993	0.129007	4190.046875
7101.718762	0.088044	0.129007	4269.287109
7101.719647	0.087828	0.129007	4347.015137
7101.720587	0.087891	0.129007	4429.632324
7101.721491	0.087913	0.129007	4509.105469
7101.722382	0.087938	0.129007	4587.458496
7101.723271	0.087938	0.129007	4665.635742
7101.724219	0.088004	0.129007	4749.063477
7102.772689	1.008245	0.128914	447.660614
7102.773587	1.472267	0.128914	1769.756226
7102.774523	1.469645	0.128914	3145.343750
7102.775452	0.847584	0.128914	3932.749512
7102.776346	0.100536	0.128914	4022.628662
7102.777282	0.087960	0.128914	4104.959473
7102.778185	0.087902	0.128914	4184.334473
7102.779079	0.087843	0.128914	4262.866211
7102.779965	0.087883	0.128914	4340.730957
7102.780907	0.087935	0.128914	4423.565430
7102.781819	0.087905	0.128914	4503.734863
7102.782724	0.087887	0.128914	4583.272461
7102.783613	0.087803	0.128914	4661.329102
7102.784565	0.087880	0.128914	4744.990723
7103.784933	1.025947	0.128681	468.857880
7103.785837	1.473798	0.128681	1801.170898
7103.786784	1.468337	0.128681	3191.686279
7103.787712	0.801196	0.128681	3935.196289
7103.788614	0.097639	0.128681	4023.266846
7103.789501	0.087740	0.128681	4101.092773
7103.790450	0.087891	0.128681	4184.500977
7103.791349	0.087861	0.128681	4263.488281
7103.792242	0.087898	0.128681	4341.980957
7103.793158	0.087942	0.128681	4422.535645
7103.794075	0.087968	0.128681	4503.201660
7103.794981	0.087803	0.128681	4582.750977
7103.795881	0.087850	0.128681	4661.816406
7103.796821	0.087832	0.128681	4744.378418
7104.843745	1.014218	0.130075	456.397919
7104.844658	1.473281	0.130075	1801.503784
7104.845564	1.469586	0.130075	3132.948975
7104.846510	0.843387	0.130075	3930.793457
7104.847416	0.098445	0.130075	4019.984375
7104.848314	0.087678	0.130075	4098.719238
7104.849200	0.087894	0.130075	4176.593750
7104.850155	0.087960	0.130075	4260.595703
7104.851055	0.087850	0.130075	4339.661133
7104.851958	0.087861	0.130075	4419.000000
7104.852840	0.087997	0.130075	4496.613281
7104.853776	0.087949	0.130075	4578.933594
7104.854687	0.087872	0.130075	4658.985352
7104.855582	0.087858	0.130075	4737.618164
7105.854936	1.000063	0.129325	443.028107
7105.855844	1.472695	0.129325	1780.235474
7105.856741	1.470344	0.129325	3099.134277
7105.857688	0.868623	0.129325	3921.720215
7105.858618	0.097899	0.129325	4012.766357
7105.859543	0.087788	0.129325	4093.970215
7105.860431	0.087872	0.129325	4172.000977
7105.861379	0.087719	0.129325	4255.158203
7105.862289	0.087894	0.129325	4335.142090
7105.863205	0.087946	0.129325	4415.700195
7105.864088	0.087843	0.129325	4493.265625
7105.865029	0.087946	0.129325	4576.022461
7105.865952	0.087861	0.129325	4657.118652
7105.866848	0.087821	0.129325	4735.806152
7106.914254	1.001814	0.130026	440.798157
7106.915159	1.472377	0.130026	1773.299072
7106.916052	1.470176	0.130026	3086.166016
7106.917019	0.851122	0.130026	3909.200928
7106.917930	0.099998	0.130026	4000.298828
7106.918820	0.087784	0.130026	4078.427002
7106.919766	0.087968	0.130026	4161.644531
7106.920676	0.087781	0.130026	4241.524902
7106.921570	0.087814	0.130026	4320.030273
7106.922459	0.087825	0.130026	4398.106445
7106.923385	0.087979	0.130026	4479.574707
7106.924288	0.087946	0.130026	4558.989746
7106.925189	0.087799	0.130026	4638.096680
7106.926075	0.087898	0.130026	4715.974121
7107.927006	1.010643	0.129909	455.800171
7107.927916	1.473182	0.129909	1796.396118
7107.928819	1.469985	0.129909	3123.792969
7107.929776	0.827787	0.129909	3915.984863
7107.930679	0.098829	0.129909	4005.227783
7107.931579	0.087913	0.129909	4084.349121
7107.932467	0.088011	0.129909	4162.503418
7107.933425	0.088066	0.129909	4246.871094
7107.934327	0.087909	0.129909	4326.165039
7107.935221	0.087953	0.129909	4404.794922
7107.936140	0.088004	0.129909	4485.670898
7107.937044	0.088077	0.129909	4565.292969
7107.937943	0.087957	0.129909	4644.365723
7107.938837	0.087924	0.129909	4722.969238
7108.986366	1.060360	0.130449	521.697144
7108.987285	1.476152	0.130449	1878.281250
7108.988192	1.468037	0.130449	3209.791016
7108.989095	0.816815	0.130449	3947.375000
7108.990045	0.095684	0.130449	4038.274414
7108.990949	0.087806	0.130449	4117.651367
7108.991841	0.087876	0.130449	4196.036621
7108.992766	0.087931	0.130449	4277.372559
7108.993667	0.087997	0.130449	4356.657715
7108.994556	0.087931	0.130449	4434.828125
7108.995447	0.087891	0.130449	4513.138672
7108.996374	0.087927	0.130449	4594.647461
7108.997286	0.087949	0.130449	4674.856934
7108.998185	0.087905	0.130449	4753.883789
7109.998535	0.987693	0.129212	426.683289
7109.999495	1.472574	0.129212	1840.354736
7110.000411	1.468348	0.129212	3185.361816
7110.001322	0.830475	0.129212	3941.924316
7110.002209	0.099946	0.129212	4030.576660
7110.003165	0.088063	0.129212	4114.764648
7110.004072	0.088081	0.129212	4194.654297
7110.004963	0.087920	0.129212	4272.990723
7110.005878	0.087931	0.129212	4353.447266
7110.006790	0.088048	0.129212	4433.747070
7110.007691	0.088015	0.129212	4513.048828
7110.008587	0.087949	0.129212	4591.851562
7110.009520	0.088008	0.129212	4673.962891
7110.010428	0.088000	0.129212	4753.867187
7111.056367	1.032173	0.132298	482.024750
7111.057288	1.474277	0.132298	1839.834229
7111.058185	1.468986	0.132298	3157.514404
7111.059131	0.820496	0.132298	3933.703125
7111.060049	0.096676	0.132298	4022.451660
7111.060958	0.087737	0.132298	4102.204590
7111.061856	0.087931	0.132298	4181.166504
7111.062794	0.087968	0.132298	4263.680176
7111.063688	0.087891	0.132298	4342.254395
7111.064586	0.087898	0.132298	4421.186523
7111.065476	0.087938	0.132298	4499.451660
7111.066428	0.087880	0.132298	4583.113281
7111.067331	0.087935	0.132298	4662.518066
7111.068224	0.087938	0.132298	4741.046875
7112.069058	0.988455	0.129640	426.023926
7112.070013	1.471736	0.129640	1831.531616
7112.070929	1.468528	0.129640	3176.703125
7112.071835	0.842761	0.129640	3940.244873
7112.072725	0.100591	0.129640	4029.770752
7112.073668	0.087755	0.129640	4112.523926
7112.074573	0.087843	0.129640	4192.021973
7112.075480	0.087810	0.129640	4271.665527
7112.076377	0.087946	0.129640	4350.552734
7112.077326	0.087971	0.129640	4434.037598
7112.078226	0.087909	0.129640	4513.155762
7112.079114	0.088030	0.129640	4591.326172
7112.080042	0.088015	0.129640	4673.004395
7112.080955	0.087847	0.129640	4753.208496
7113.128395	0.996339	0.130074	440.381866
7113.129370	1.476094	0.130074	1879.573242
7113.130287	1.467444	0.130074	3225.219238
7113.131197	0.794260	0.130074	3947.996094
7113.132081	0.098075	0.130074	4034.694336
7113.133016	0.087924	0.130074	4116.902832
7113.133927	0.088074	0.130074	4197.138184
7113.134818	0.087953	0.130074	4275.504395
7113.135742	0.087982	0.130074	4356.799805
7113.136648	0.088000	0.130074	4436.528320
7113.137548	0.087898	0.130074	4515.636719
7113.138435	0.087913	0.130074	4593.615234
7113.139389	0.087979	0.130074	4677.546875
7113.140284	0.088011	0.130074	4756.317383
7114.139621	1.017125	0.130896	461.774872
7114.140540	1.473175	0.130896	1815.622803
7114.141440	1.469180	0.130896	3137.884521
7114.142386	0.832192	0.130896	3925.138428
7114.143283	0.099207	0.130896	4014.126709
7114.144186	0.087839	0.130896	4093.445557
7114.145073	0.087825	0.130896	4171.346191
7114.146015	0.088008	0.130896	4254.249512
7114.146925	0.087909	0.130896	4334.246582
7114.147831	0.087898	0.130896	4413.882324
7114.148728	0.087858	0.130896	4492.690430
7114.149666	0.087924	0.130896	4575.162598
7114.150579	0.087953	0.130896	4655.463379
7114.151469	0.087894	0.130896	4733.689453
7115.198983	1.046733	0.130787	523.366699
7115.199894	1.476149	0.130787	1868.138184
7115.200795	1.468154	0.130787	3190.945312
7115.201695	0.832196	0.130787	3939.921875
7115.202634	0.096570	0.130787	4030.600830
7115.203535	0.087828	0.130787	4109.734375
7115.204432	0.087927	0.130787	4188.604980
7115.205344	0.088004	0.130787	4268.864746
7115.206255	0.087990	0.130787	4349.022949
7115.207162	0.087920	0.130787	4428.766113
7115.208051	0.087883	0.130787	4506.894531
7115.209000	0.088026	0.130787	4590.431152
7115.209896	0.087979	0.130787	4669.259766
7115.210800	0.087898	0.130787	4748.719727
7116.210640	0.997775	0.132060	440.018585
7116.211535	1.471381	0.132060	1756.904175
7116.212498	1.468726	0.132060	3171.286865
7116.213413	0.849174	0.132060	3948.280762
7116.214310	0.100540	0.132060	4038.464844
7116.215217	0.087839	0.132060	4118.135254
7116.216150	0.087953	0.132060	4200.195312
7116.217067	0.087953	0.132060	4280.848145
7116.217956	0.087788	0.132060	4358.891602
7116.218885	0.087953	0.132060	4440.599609
7116.219795	0.087913	0.132060	4520.600098
7116.220699	0.087861	0.132060	4600.026855
7116.221590	0.087905	0.132060	4678.350586
7116.222536	0.087986	0.132060	4761.584961
7117.271498	0.993999	0.130836	434.377563
7117.272392	1.470978	0.130836	1749.431763
7117.273394	1.467726	0.130836	3220.093018
7117.274312	0.780304	0.130836	3936.412109
7117.275208	0.096401	0.130836	4022.787842
7117.276145	0.087821	0.130836	4105.076172
7117.277058	0.087861	0.130836	4185.293457
7117.277963	0.087880	0.130836	4264.824707
7117.278849	0.087814	0.130836	4342.627441
7117.279804	0.087905	0.130836	4426.577148
7117.280703	0.087869	0.130836	4505.571289
7117.281614	0.087902	0.130836	4585.649414
7117.282509	0.087832	0.130836	4664.259277
7117.283470	0.087854	0.130836	4748.687012
7118.281166	0.999514	0.131742	440.785736
7118.282129	1.474406	0.131742	1860.638306
7118.283050	1.467957	0.131742	3212.626465
7118.283964	0.805331	0.131742	3948.698730
7118.284850	0.098434	0.131742	4035.911133
7118.285784	0.087953	0.131742	4118.059082
7118.286689	0.087872	0.131742	4197.583496
7118.287589	0.087894	0.131742	4276.688477
7118.288523	0.088019	0.131742	4358.897949
7118.289427	0.088015	0.131742	4438.463867
7118.290325	0.087821	0.131742	4517.327148
7118.291215	0.088019	0.131742	4595.664062
7118.292159	0.088030	0.131742	4678.764160
7118.293059	0.087968	0.131742	4757.935059
7119.342076	1.056368	0.133047	508.113190
7119.342993	1.475654	0.133047	1861.288086
7119.343904	1.468165	0.133047	3198.786621
7119.344800	0.821177	0.133047	3934.561035
7119.345763	0.095713	0.133047	4026.732422
7119.346670	0.087803	0.133047	4106.369629
7119.347566	0.087902	0.133047	4185.129395
7119.348503	0.087894	0.133047	4267.486328
7119.349398	0.087927	0.133047	4346.181152
7119.350302	0.087894	0.133047	4425.637695
7119.351193	0.087865	0.133047	4503.925293
7119.352140	0.088026	0.133047	4587.286133
7119.353040	0.087858	0.133047	4666.357910
7119.353939	0.087960	0.133047	4745.434082
7120.352250	1.043628	0.132359	507.203125
7120.353168	1.475797	0.132359	1861.984985
7120.354076	1.468151	0.132359	3195.065918
7120.354977	0.831182	0.132359	3943.960449
7120.355928	0.096255	0.132359	4035.498779
7120.356823	0.087821	0.132359	4114.098633
7120.357711	0.087957	0.132359	4192.204102
7120.358631	0.087916	0.132359	4273.086914
7120.359545	0.087909	0.132359	4353.435547
7120.360448	0.088000	0.132359	4432.899902
7120.361336	0.087971	0.132359	4511.018555
7120.362265	0.088022	0.132359	4592.791504
7120.363182	0.087861	0.132359	4673.360352
7120.364082	0.087762	0.132359	4752.346680
7121.414093	0.996636	0.131859	436.526459
7121.415034	1.472941	0.131859	1822.563721
7121.415957	1.468378	0.131859	3177.876465
7121.416868	0.841344	0.131859	3944.340820
7121.417754	0.100719	0.131859	4033.577881
7121.418717	0.087872	0.131859	4118.198730
7121.419632	0.087927	0.131859	4198.652344
7121.420530	0.087854	0.131859	4277.545410
7121.421452	0.087883	0.131859	4358.573730
7121.422360	0.087990	0.131859	4438.468262
7121.423268	0.087865	0.131859	4518.249512
7121.424158	0.087876	0.131859	4596.458984
7121.425088	0.087836	0.131859	4678.145996
7121.425993	0.087792	0.131859	4757.597656
7122.422782	1.026361	0.133015	500.864227
7122.423701	1.475475	0.133015	1856.825684
7122.424631	1.467272	0.133015	3221.388184
7122.425535	0.795568	0.133015	3940.581299
7122.426509	0.093999	0.133015	4032.136230
7122.427401	0.087788	0.133015	4110.443359
7122.428319	0.087869	0.133015	4191.106934
7122.429215	0.087949	0.133015	4269.909668
7122.430159	0.087825	0.133015	4352.816406
7122.431080	0.087825	0.133015	4433.703125
7122.431969	0.088008	0.133015	4511.941895
7122.432903	0.087975	0.133015	4594.110352
7122.433818	0.087865	0.133015	4674.506836
7122.434738	0.087931	0.133015	4755.403320
7123.485650	1.009395	0.132612	450.189972
7123.486552	1.472318	0.132612	1778.220825
7123.487447	1.470527	0.132612	3094.342773
7123.488427	0.826582	0.132612	3904.393066
7123.489324	0.099115	0.132612	3993.299316
7123.490223	0.087843	0.132612	4072.270264
7123.491111	0.087909	0.132612	4150.333496
7123.492052	0.088011	0.132612	4233.152344
7123.492963	0.087854	0.132612	4313.187500
7123.493858	0.087997	0.132612	4391.944824
7123.494790	0.088140	0.132612	4474.090820
7123.495693	0.087997	0.132612	4553.551758
7123.496589	0.087931	0.132612	4632.337891
7123.497479	0.088081	0.132612	4710.729980
7124.493767	0.998734	0.132516	437.445557
7124.494723	1.473424	0.132516	1846.038940
7124.495645	1.468202	0.132516	3199.721191
7124.496557	0.816720	0.132516	3944.569824
7124.497445	0.099214	0.132516	4032.671631
7124.498395	0.088015	0.132516	4116.286133
7124.499303	0.087979	0.132516	4196.170410
7124.500197	0.087993	0.132516	4274.836426
7124.501106	0.088096	0.132516	4354.915527
7124.502028	0.088030	0.132516	4436.079102
7124.502936	0.087814	0.132516	4515.813965
7124.503831	0.087979	0.132516	4594.554687
7124.504770	0.088085	0.132516	4677.266113
7124.505684	0.088004	0.132516	4757.702148
7125.557205	1.005751	0.132709	448.564789
7125.558108	1.472029	0.132709	1777.806885
7125.559082	1.467891	0.132709	3207.532227
7125.559997	0.791422	0.132709	3931.683594
7125.560929	0.096101	0.132709	4021.249756
7125.561826	0.087883	0.132709	4100.081055
7125.562775	0.087821	0.132709	4183.423340
7125.563663	0.087850	0.132709	4261.434570
7125.564553	0.087898	0.132709	4339.663574
7125.565479	0.087887	0.132709	4421.046875
7125.566385	0.087737	0.132709	4500.536621
7125.567306	0.087949	0.132709	4581.538086
7125.568192	0.087993	0.132709	4659.500000
7125.569135	0.088008	0.132709	4742.491211
7126.564350	1.022194	0.133176	499.852692
7126.565261	1.475588	0.133176	1844.113770
7126.566161	1.468656	0.133176	3165.904297
7126.567059	0.861764	0.133176	3939.768311
7126.568006	0.098313	0.133176	4032.870605
7126.568904	0.087946	0.133176	4111.845703
7126.569802	0.087949	0.133176	4190.824219
7126.570693	0.088011	0.133176	4269.242676
7126.571641	0.087968	0.133176	4352.635742
7126.572551	0.087957	0.133176	4432.676270
7126.573455	0.087971	0.133176	4512.202148
7126.574376	0.087997	0.133176	4593.247070
7126.575282	0.088048	0.133176	4673.018555
7126.576180	0.087898	0.133176	4751.950684
7127.628762	1.013884	0.132294	457.261780
7127.629666	1.472809	0.132294	1788.680908
7127.630559	1.469791	0.132294	3101.204590
7127.631517	0.848027	0.132294	3913.614746
7127.632425	0.099939	0.132294	4004.359375
7127.633320	0.087931	0.132294	4083.057617
7127.634247	0.087971	0.132294	4164.606934
7127.635149	0.087975	0.132294	4243.960449
7127.636050	0.087971	0.132294	4323.222656
7127.636939	0.087924	0.132294	4401.386719
7127.637905	0.088103	0.132294	4486.494141
7127.638807	0.087909	0.132294	4565.788086
7127.639706	0.088044	0.132294	4644.939941
7127.640594	0.087909	0.132294	4723.002930
7128.634873	1.019308	0.134111	495.383606
7128.635820	1.476233	0.134111	1893.376221
7128.636718	1.467202	0.134111	3210.923828
7128.637618	0.807433	0.134111	3937.613281
7128.638562	0.096764	0.134111	4028.958496
7128.639473	0.087880	0.134111	4109.016602
7128.640402	0.087887	0.134111	4190.663574
7128.641289	0.087916	0.134111	4268.645508
7128.642252	0.087806	0.134111	4353.203125
7128.643155	0.087839	0.134111	4432.521973
7128.644044	0.087817	0.134111	4510.591797
7128.644982	0.087883	0.134111	4593.026367
7128.645893	0.087861	0.134111	4673.067871
7128.646791	0.087850	0.134111	4751.957520
7129.700298	1.000627	0.132379	439.275421
7129.701268	1.476020	0.132379	1871.015259
7129.702178	1.467733	0.132379	3206.652344
7129.703084	0.817526	0.132379	3947.330566
7129.704017	0.098738	0.132379	4039.452881
7129.704921	0.087872	0.132379	4118.889648
7129.705815	0.087913	0.132379	4197.483398
7129.706704	0.087913	0.132379	4275.637695
7129.707663	0.087938	0.132379	4359.970703
7129.708565	0.087839	0.132379	4439.201660
7129.709466	0.087817	0.132379	4518.325195
7129.710349	0.087858	0.132379	4595.903320
7129.711278	0.087960	0.132379	4677.618164
7129.712189	0.087927	0.132379	4757.719727
7130.705364	1.005721	0.135533	448.551758
7130.706261	1.471923	0.135533	1768.866333
7130.707210	1.469220	0.135533	3163.156006
7130.708143	0.826531	0.135533	3934.309082
7130.709054	0.098046	0.135533	4023.628662
7130.709955	0.087861	0.135533	4102.791504
7130.710897	0.087975	0.135533	4185.664062
7130.711797	0.087887	0.135533	4264.762207
7130.712692	0.087883	0.135533	4343.417969
7130.713574	0.087814	0.135533	4420.869629
7130.714501	0.087964	0.135533	4502.412109
7130.715417	0.087821	0.135533	4582.855957
7130.716316	0.087883	0.135533	4661.863281
7130.717252	0.087883	0.135533	4744.122070
7131.772383	1.006934	0.132467	455.133972
7131.773286	1.472706	0.132467	1784.987549
7131.774180	1.470242	0.132467	3099.383545
7131.775131	0.860006	0.132467	3917.249268
7131.776037	0.099404	0.132467	4007.309570
7131.776964	0.087935	0.132467	4088.824951
7131.777853	0.087861	0.132467	4166.933594
7131.778812	0.087861	0.132467	4251.192383
7131.779717	0.087953	0.132467	4330.789551
7131.780633	0.087806	0.132467	4411.220215
7131.781521	0.087858	0.132467	4489.237793
7131.782474	0.087913	0.132467	4573.018555
7131.783401	0.087854	0.132467	4654.458984
7131.784294	0.087997	0.132467	4733.040039
7132.775881	0.990253	0.135617	430.759949
7132.776775	1.471047	0.135617	1745.876221
7132.777743	1.468883	0.135617	3167.755127
7132.778667	0.831984	0.135617	3936.508057
7132.779563	0.099639	0.135617	4025.784180
7132.780509	0.087872	0.135617	4108.911621
7132.781409	0.087979	0.135617	4188.092285
7132.782309	0.087957	0.135617	4267.252930
7132.783195	0.087982	0.135617	4345.205078
7132.784139	0.087949	0.135617	4428.229004
7132.785041	0.087828	0.135617	4507.450195
7132.785943	0.087883	0.135617	4586.720703
7132.786829	0.087968	0.135617	4664.660156
7132.787786	0.087949	0.135617	4748.827637
7133.842890	0.998877	0.133144	439.505890
7133.843853	1.474047	0.133144	1859.012695
7133.844761	1.468282	0.133144	3192.213135
7133.845675	0.820481	0.133144	3942.132812
7133.846560	0.099485	0.133144	4030.177002
7133.847506	0.087990	0.133144	4113.415039
7133.848411	0.088055	0.133144	4193.104980
7133.849308	0.087909	0.133144	4271.959473
7133.850230	0.087902	0.133144	4353.004883
7133.851135	0.088019	0.133144	4432.662109
7133.852053	0.087924	0.133144	4513.375977
7133.852943	0.087905	0.133144	4591.611816
7133.853879	0.087997	0.133144	4673.977051
7133.854779	0.087909	0.133144	4753.095215
7134.846923	0.999536	0.135601	438.796356
7134.847886	1.473680	0.135601	1857.950562
7134.848796	1.468085	0.135601	3193.907715
7134.849721	0.805356	0.135601	3938.862305
7134.850615	0.098064	0.135601	4026.531494
7134.851576	0.087902	0.135601	4111.004883
7134.852476	0.087843	0.135601	4190.063477
7134.853366	0.087887	0.135601	4268.282715
7134.854282	0.087964	0.135601	4348.857422
7134.855195	0.087825	0.135601	4429.041504
7134.856090	0.087832	0.135601	4507.651367
7134.856978	0.087898	0.135601	4585.704590
7134.857913	0.087909	0.135601	4667.899414
7134.858817	0.087872	0.135601	4747.335937
7135.913945	1.010995	0.133805	448.881744
7135.914874	1.473450	0.133805	1817.716431
7135.915778	1.469125	0.133805	3145.805176
7135.916727	0.834928	0.133805	3938.151855
7135.917629	0.098503	0.133805	4027.001953
7135.918537	0.087642	0.133805	4106.580566
7135.919435	0.087982	0.133805	4185.588379
7135.920364	0.087953	0.133805	4267.296387
7135.921267	0.087898	0.133805	4346.668457
7135.922172	0.087894	0.133805	4426.212891
7135.923060	0.087876	0.133805	4504.246582
7135.924009	0.088004	0.133805	4587.762695
7135.924918	0.087854	0.133805	4667.622070
7135.925809	0.087850	0.133805	4745.896484
7136.918984	0.990948	0.136314	432.053528
7136.919931	1.471179	0.136314	1825.260254
7136.920849	1.469062	0.136314	3173.859619
7136.921772	0.829783	0.136314	3939.749023
7136.922663	0.099236	0.136314	4028.168213
7136.923590	0.087883	0.136314	4109.636230
7136.924494	0.087953	0.136314	4189.145508
7136.925395	0.087872	0.136314	4268.318359
7136.926282	0.087971	0.136314	4346.348633
7136.927237	0.088015	0.136314	4430.403320
7136.928139	0.087905	0.136314	4509.693848
7136.929034	0.087938	0.136314	4588.398437
7136.929972	0.087968	0.136314	4670.912109
7136.930868	0.087997	0.136314	4749.757324
7137.984976	1.005392	0.132568	448.404755
7137.985881	1.472589	0.132568	1781.097900
7137.986778	1.470443	0.132568	3100.085449
7137.987759	0.819207	0.132568	3903.727051
7137.988663	0.098708	0.132568	3992.959473
7137.989592	0.087762	0.132568	4074.490723
7137.990481	0.088026	0.132568	4152.746094
7137.991429	0.087916	0.132568	4236.090820
7137.992325	0.087880	0.132568	4314.831055
7137.993214	0.087880	0.132568	4392.956055
7137.994149	0.087975	0.132568	4475.212402
7137.995056	0.087898	0.132568	4554.936035
7137.995970	0.087909	0.132568	4635.284668
7137.996868	0.087924	0.132568	4714.240234
7138.988997	0.989634	0.137821	428.511444
7138.989945	1.473058	0.137821	1824.970337
7138.990859	1.468791	0.137821	3167.445801
7138.991771	0.847148	0.137821	3940.045166
7138.992659	0.101389	0.137821	4030.078857
7138.993609	0.087847	0.137821	4113.533203
7138.994512	0.087817	0.137821	4192.832520
7138.995410	0.087905	0.137821	4271.771484
7138.996330	0.087953	0.137821	4352.687988
7138.997250	0.088022	0.137821	4433.668457
7138.998154	0.087891	0.137821	4513.121582
7138.999048	0.087854	0.137821	4591.663086
7138.999984	0.087964	0.137821	4673.997070
7139.000886	0.087916	0.137821	4753.297363
7140.057047	1.010468	0.133615	447.637115
7140.057978	1.473977	0.133615	1819.909668
7140.058880	1.468898	0.133615	3144.855469
7140.059847	0.801486	0.133615	3919.892090
7140.060748	0.097350	0.133615	4007.604248
7140.061651	0.087806	0.133615	4086.893311
7140.062539	0.087953	0.133615	4164.995605
7140.063490	0.087986	0.133615	4248.669922
7140.064389	0.087957	0.133615	4327.742676
7140.065281	0.087850	0.133615	4406.104980
7140.066197	0.087982	0.133615	4486.696777
7140.067115	0.087942	0.133615	4567.427246
7140.068020	0.087931	0.133615	4647.004883
7140.068917	0.087957	0.133615	4725.901855
7141.059533	0.994435	0.137567	436.556854
7141.060494	1.475065	0.137567	1854.093994
7141.061399	1.468301	0.137567	3182.906250
7141.062298	0.850708	0.137567	3947.692871
7141.063223	0.100635	0.137567	4040.780029
7141.064145	0.087898	0.137567	4121.821777
7141.065050	0.087938	0.137567	4201.405762
7141.065941	0.087847	0.137567	4279.677246
7141.066884	0.087946	0.137567	4362.609863
7141.067802	0.087894	0.137567	4443.296875
7141.068710	0.087894	0.137567	4523.104980
7141.069601	0.087894	0.137567	4601.418945
7141.070546	0.088048	0.137567	4684.624512
7141.071444	0.087953	0.137567	4763.605957
7142.127572	1.006410	0.133958	448.858795
7142.128470	1.472318	0.133958	1771.000366
7142.129414	1.469711	0.133958	3158.407227
7142.130343	0.839121	0.133958	3937.950684
7142.131252	0.099265	0.133958	4028.182617
7142.132142	0.087664	0.133958	4106.203125
7142.133090	0.087960	0.133958	4189.589355
7142.133990	0.087905	0.133958	4268.704102
7142.134884	0.087854	0.133958	4347.245605
7142.135775	0.087876	0.133958	4425.542969
7142.136718	0.087902	0.133958	4508.434082
7142.137622	0.087931	0.133958	4587.923828
7142.138520	0.087803	0.133958	4666.770508
7142.139453	0.087814	0.133958	4748.700684
7143.131598	0.995043	0.137172	435.828735
7143.132504	1.471747	0.137172	1769.231323
7143.133464	1.468605	0.137172	3179.091797
7143.134386	0.824824	0.137172	3939.579590
7143.135273	0.099456	0.137172	4027.796631
7143.136220	0.087770	0.137172	4110.914551
7143.137119	0.087913	0.137172	4189.947754
7143.138022	0.087883	0.137172	4269.306152
7143.138911	0.087887	0.137172	4347.437500
7143.139839	0.087953	0.137172	4429.057617
7143.140749	0.087960	0.137172	4509.101562
7143.141648	0.087858	0.137172	4588.085449
7143.142558	0.087876	0.137172	4668.052734
7143.143465	0.087898	0.137172	4747.776367
7144.198601	0.994025	0.133817	433.394714
7144.199505	1.471501	0.133817	1763.632080
7144.200479	1.467902	0.133817	3193.368164
7144.201397	0.808835	0.133817	3935.879150
7144.202286	0.098390	0.133817	4023.347656
7144.203222	0.087777	0.133817	4105.506836
7144.204144	0.087850	0.133817	4186.504883
7144.205042	0.087803	0.133817	4265.351562
7144.205931	0.087854	0.133817	4343.453613
7144.206873	0.087953	0.133817	4426.305176
7144.207776	0.087898	0.133817	4505.677246
7144.208660	0.087858	0.133817	4583.343262
7144.209583	0.087894	0.133817	4664.469727
7144.210512	0.087913	0.133817	4746.140625
7145.203664	1.007743	0.136620	445.422363
7145.204574	1.472692	0.136620	1785.571777
7145.205471	1.469678	0.136620	3103.872559
7145.206447	0.823048	0.136620	3907.167480
7145.207349	0.098650	0.136620	3996.149658
7145.208247	0.087777	0.136620	4074.973389
7145.209176	0.087905	0.136620	4156.637207
7145.210079	0.088030	0.136620	4236.127930
7145.210979	0.087814	0.136620	4315.160156
7145.211865	0.087832	0.136620	4392.979492
7145.212798	0.087891	0.136620	4474.981445
7145.213703	0.087909	0.136620	4554.539062
7145.214609	0.087788	0.136620	4634.075195
7145.215502	0.087872	0.136620	4712.545410
7146.269175	1.026768	0.134151	497.982300
7146.270105	1.476628	0.134151	1871.246704
7146.271021	1.467037	0.134151	3215.052734
7146.271962	0.755555	0.134151	3926.030273
7146.272852	0.096021	0.134151	4011.488525
7146.273793	0.087770	0.134151	4094.079834
7146.274702	0.087755	0.134151	4173.849121
7146.275619	0.087905	0.134151	4254.458496
7146.276504	0.087913	0.134151	4332.261230
7146.277447	0.087748	0.134151	4415.007324
7146.278361	0.087766	0.134151	4495.225586
7146.279286	0.087865	0.134151	4576.500488
7146.280174	0.087913	0.134151	4654.566895
7146.281128	0.087935	0.134151	4738.456543
7147.273689	1.006780	0.137334	450.030579
7147.274578	1.471904	0.137334	1758.553467
7147.275524	1.469685	0.137334	3148.875488
7147.276462	0.826831	0.137334	3924.442871
7147.277368	0.098573	0.137334	4013.750000
7147.278266	0.087821	0.137334	4092.613281
7147.279191	0.087927	0.137334	4173.945801
7147.280099	0.087971	0.137334	4253.823730
7147.281001	0.087931	0.137334	4333.137207
7147.281886	0.087832	0.137334	4410.868652
7147.282825	0.087968	0.137334	4493.470215
7147.283727	0.087825	0.137334	4572.687988
7147.284620	0.087854	0.137334	4651.141602
7147.285556	0.087942	0.137334	4733.455078
7148.341193	0.990143	0.134272	430.712128
7148.342152	1.471575	0.134272	1841.952393
7148.343076	1.468063	0.134272	3198.442383
7148.343991	0.812519	0.134272	3941.897705
7148.344880	0.098665	0.134272	4029.610596
7148.345830	0.087982	0.134272	4113.193848
7148.346752	0.087913	0.134272	4194.249023
7148.347655	0.087883	0.134272	4273.607422
7148.348543	0.087861	0.134272	4351.628418
7148.349486	0.087957	0.134272	4434.571289
7148.350393	0.087971	0.134272	4514.361328
7148.351283	0.087891	0.134272	4592.583984
7148.352211	0.087982	0.134272	4674.231445
7148.353118	0.088026	0.134272	4754.071289
7149.344717	1.001807	0.137531	442.798523
7149.345611	1.471589	0.137531	1758.399414
7149.346594	1.467825	0.137531	3201.270996
7149.347503	0.816134	0.137531	3943.136719
7149.348390	0.098862	0.137531	4030.827637
7149.349328	0.087861	0.137531	4113.241699
7149.350242	0.087744	0.137531	4193.439941
7149.351139	0.087850	0.137531	4272.241699
7149.352029	0.087924	0.137531	4350.493652
7149.352976	0.087949	0.137531	4433.781738
7149.353872	0.087850	0.137531	4512.495605
7149.354791	0.087953	0.137531	4593.324219
7149.355681	0.087887	0.137531	4671.543457
7149.356624	0.087865	0.137531	4754.399902
7150.411722	1.009336	0.135831	442.089172
7150.412705	1.476735	0.135831	1893.719238
7150.413628	1.467078	0.135831	3247.832031
7150.414535	0.779055	0.135831	3954.435059
7150.415465	0.096350	0.135831	4044.040527
7150.416363	0.087927	0.135831	4122.999023
7150.417269	0.087957	0.135831	4202.687500
7150.418154	0.087927	0.135831	4280.502930
7150.419092	0.088026	0.135831	4363.071289
7150.419998	0.087847	0.135831	4442.660156
7150.420895	0.087883	0.135831	4521.491699
7150.421806	0.087916	0.135831	4601.583496
7150.422739	0.088052	0.135831	4683.735840
7150.423652	0.087883	0.135831	4763.973145
7151.417812	1.005736	0.137257	447.552521
7151.418706	1.471941	0.137257	1763.467651
7151.419665	1.468729	0.137257	3171.979004
7151.420594	0.827520	0.137257	3940.744629
7151.421516	0.098104	0.137257	4031.196777
7151.422402	0.087902	0.137257	4109.077637
7151.423341	0.087979	0.137257	4191.689453
7151.424233	0.087924	0.137257	4270.117187
7151.425125	0.087927	0.137257	4348.548340
7151.426059	0.087938	0.137257	4430.682617
7151.426979	0.087935	0.137257	4511.582520
7151.427884	0.087792	0.137257	4591.034180
7151.428769	0.087898	0.137257	4668.823730
7151.429713	0.088004	0.137257	4751.899414
7152.482766	1.001708	0.136439	441.753143
7152.483670	1.471677	0.136439	1772.149414
7152.484567	1.470333	0.136439	3091.038330
7152.485524	0.862789	0.136439	3916.727783
7152.486433	0.100012	0.136439	4007.638916
7152.487339	0.087777	0.136439	4087.165039
7152.488225	0.087905	0.136439	4165.049316
7152.489168	0.088022	0.136439	4248.054687
7152.490079	0.087861	0.136439	4328.096191
7152.490970	0.087942	0.136439	4406.452637
7152.491908	0.088026	0.136439	4489.020996
7152.492811	0.087968	0.136439	4568.455566
7152.493718	0.087927	0.136439	4648.205566
7152.494608	0.087891	0.136439	4726.428223
7153.488370	1.014166	0.136866	486.799805
7153.489285	1.474676	0.136866	1836.128784
7153.490187	1.468755	0.136866	3160.945801
7153.491084	0.865247	0.136866	3937.072021
7153.492037	0.097214	0.136866	4029.717285
7153.492942	0.087887	0.136866	4109.254883
7153.493844	0.087902	0.136866	4188.541992
7153.494736	0.088066	0.136866	4267.097168
7153.495701	0.087997	0.136866	4352.014160
7153.496615	0.087810	0.136866	4432.272461
7153.497511	0.087755	0.136866	4510.900879
7153.498458	0.087946	0.136866	4594.185547
7153.499356	0.088059	0.136866	4673.262695
7153.500254	0.087931	0.136866	4752.224609
7154.553308	1.020839	0.137100	464.481567
7154.554209	1.473047	0.137100	1791.696777
7154.555186	1.467682	0.137100	3225.622070
7154.556099	0.789001	0.137100	3945.980469
7154.556997	0.097225	0.137100	4033.288818
7154.557885	0.087762	0.137100	4111.221680
7154.558836	0.087905	0.137100	4194.819824
7154.559735	0.087817	0.137100	4273.767578
7154.560634	0.087825	0.137100	4352.722168
7154.561564	0.087784	0.137100	4434.361816
7154.562468	0.087880	0.137100	4513.805176
7154.563368	0.087814	0.137100	4592.837402
7154.564255	0.087814	0.137100	4670.728027
7154.565218	0.087964	0.137100	4755.437012
7155.560900	0.989608	0.136886	428.500305
7155.561851	1.471201	0.136886	1827.612549
7155.562786	1.467755	0.136886	3199.963623
7155.563700	0.814728	0.136886	3944.624756
7155.564591	0.098708	0.136886	4032.573975
7155.565530	0.087836	0.136886	4115.051758
7155.566440	0.087880	0.136886	4195.022461
7155.567344	0.087927	0.136886	4274.508789
7155.568235	0.087825	0.136886	4352.760742
7155.569173	0.087938	0.136886	4435.246582
7155.570074	0.087839	0.136886	4514.389648
7155.570965	0.087891	0.136886	4592.700195
7155.571890	0.087949	0.136886	4674.053223
7155.572798	0.087986	0.136886	4753.944336
7156.623314	0.998844	0.136689	439.491364
7156.624213	1.471534	0.136689	1762.400757
7156.625181	1.468235	0.136689	3183.651855
7156.626109	0.810414	0.136689	3935.715820
7156.627009	0.097526	0.136689	4023.488770
7156.627928	0.087982	0.136689	4104.344238
7156.628842	0.087949	0.136689	4184.729980
7156.629753	0.087843	0.136689	4264.754883
7156.630647	0.087898	0.136689	4343.335449
7156.631571	0.087894	0.136689	4424.549805
7156.632484	0.087931	0.136689	4504.830566
7156.633392	0.087927	0.136689	4584.668457
7156.634282	0.087836	0.136689	4662.842285
7156.635230	0.087993	0.136689	4746.259766
7157.631506	1.069080	0.137104	545.230591
7157.632433	1.477321	0.137104	1914.706787
7157.633341	1.467272	0.137104	3246.989502
7157.634236	0.785720	0.137104	3950.208984
7157.635187	0.094768	0.137104	4040.333496
7157.636104	0.087891	0.137104	4120.929199
7157.636992	0.087975	0.137104	4199.050781
7157.637928	0.087949	0.137104	4281.371094
7157.638835	0.088033	0.137104	4361.217285
7157.639734	0.087810	0.137104	4440.158691
7157.640621	0.087861	0.137104	4518.091797
7157.641549	0.087979	0.137104	4599.735840
7157.642456	0.087905	0.137104	4679.465820
7157.643360	0.087836	0.137104	4758.869141
7158.693842	1.003759	0.137132	444.665039
7158.694776	1.471637	0.137132	1819.173950
7158.695711	1.468136	0.137132	3191.881104
7158.696619	0.826663	0.137132	3942.490723
7158.697505	0.099624	0.137132	4030.757568
7158.698446	0.087828	0.137132	4113.404297
7158.699372	0.087814	0.137132	4194.719727
7158.700273	0.087784	0.137132	4273.813477
7158.701159	0.087861	0.137132	4351.658691
7158.702114	0.087949	0.137132	4435.650391
7158.703016	0.087825	0.137132	4514.868164
7158.703906	0.087865	0.137132	4593.067871
7158.704828	0.087902	0.137132	4674.113281
7158.705744	0.087927	0.137132	4754.654785
7159.702490	1.013734	0.139207	457.194092
7159.703394	1.473109	0.139207	1788.884766
7159.704323	1.469290	0.139207	3153.854736
7159.705252	0.845127	0.139207	3938.977539
7159.706159	0.099412	0.139207	4029.143799
7159.707055	0.087766	0.139207	4107.782227
7159.707999	0.087942	0.139207	4190.799316
7159.708902	0.087755	0.139207	4270.041992
7159.709800	0.087847	0.139207	4348.928223
7159.710682	0.088015	0.139207	4426.557617
7159.711629	0.087990	0.139207	4509.883789
7159.712537	0.087942	0.139207	4589.734863
7159.713435	0.087762	0.139207	4668.545410
7159.714352	0.087927	0.139207	4749.174805
7160.764878	1.000818	0.139376	441.360687
7160.765799	1.472780	0.139376	1797.790649
7160.766708	1.469224	0.139376	3133.314941
7160.767658	0.840688	0.139376	3931.968994
7160.768557	0.099551	0.139376	4021.465088
7160.769453	0.087748	0.139376	4100.086914
7160.770342	0.087905	0.139376	4178.234863
7160.771291	0.087949	0.139376	4261.698730
7160.772187	0.087975	0.139376	4340.524414
7160.773088	0.087814	0.139376	4419.644531
7160.773973	0.087920	0.139376	4497.453613
7160.774919	0.088000	0.139376	4580.702148
7160.775831	0.087953	0.139376	4660.915039
7160.776728	0.087876	0.139376	4739.739746
7161.774592	1.021135	0.137914	504.440857
7161.775516	1.475651	0.137914	1867.942139
7161.776421	1.467960	0.137914	3196.446289
7161.777315	0.831123	0.137914	3939.470215
7161.778257	0.096233	0.137914	4030.121582
7161.779171	0.087708	0.137914	4110.286133
7161.780067	0.087872	0.137914	4189.019531
7161.780955	0.087843	0.137914	4267.023926
7161.781906	0.088022	0.137914	4350.733398
7161.782814	0.087935	0.137914	4430.578125
7161.783705	0.087843	0.137914	4508.846191
7161.784636	0.087968	0.137914	4590.744141
7161.785540	0.087832	0.137914	4670.144531
7161.786437	0.087843	0.137914	4748.939941
7162.835404	1.000382	0.138091	440.168121
7162.836313	1.472406	0.138091	1778.585083
7162.837233	1.469751	0.138091	3130.755859
7162.838175	0.846537	0.138091	3928.193604
7162.839078	0.100173	0.138091	4018.650146
7162.839967	0.087836	0.138091	4096.735840
7162.840904	0.088037	0.138091	4179.226562
7162.841805	0.087792	0.138091	4258.327148
7162.842712	0.087964	0.138091	4338.110352
7162.843604	0.087817	0.138091	4416.443359
7162.844556	0.087968	0.138091	4500.188477
7162.845468	0.087916	0.138091	4580.368164
7162.846366	0.087865	0.138091	4659.270996
7162.847280	0.087850	0.138091	4739.566406
7163.846605	1.000276	0.137636	441.121643
7163.847569	1.475013	0.137636	1863.034424
7163.848477	1.468110	0.137636	3196.078613
7163.849386	0.825560	0.137636	3946.512939
7163.850270	0.099888	0.137636	4034.813721
7163.851211	0.087858	0.137636	4117.487793
7163.852118	0.087979	0.137636	4197.284180
7163.853019	0.087990	0.137636	4276.562500
7163.853952	0.087960	0.137636	4358.629395
7163.854853	0.088022	0.137636	4437.937500
7163.855749	0.087913	0.137636	4516.707031
7163.856635	0.087847	0.137636	4594.539062
7163.857565	0.087960	0.137636	4676.342285
7163.858469	0.087920	0.137636	4755.821777
7164.907486	1.005469	0.138768	460.504669
7164.908438	1.476028	0.138768	1865.683105
7164.909350	1.467729	0.138768	3204.252441
7164.910252	0.821254	0.138768	3945.023193
7164.911187	0.097203	0.138768	4035.908447
7164.912100	0.087854	0.138768	4116.119141
7164.912999	0.087828	0.138768	4195.076660
7164.913887	0.087920	0.138768	4273.149414
7164.914841	0.087990	0.138768	4357.091309
7164.915739	0.087792	0.138768	4435.928223
7164.916626	0.087968	0.138768	4513.955566
7164.917551	0.087883	0.138768	4595.247559
7164.918470	0.087993	0.138768	4676.113281
7164.919371	0.087880	0.138768	4755.292969
7165.918675	1.004165	0.138876	446.853455
7165.919573	1.472172	0.138876	1768.863525
7165.920508	1.469725	0.138876	3143.056641
7165.921431	0.857271	0.138876	3934.317383
7165.922333	0.100803	0.138876	4025.241943
7165.923224	0.087777	0.138876	4103.451172
7165.924168	0.087979	0.138876	4186.502930
7165.925072	0.087990	0.138876	4266.045410
7165.925969	0.087971	0.138876	4344.955566
7165.926863	0.087949	0.138876	4423.582031
7165.927805	0.088037	0.138876	4506.513184
7165.928721	0.087979	0.138876	4587.101562
7165.929620	0.087773	0.138876	4666.009766
7165.930539	0.088000	0.138876	4746.882324
7166.977500	1.017876	0.138606	454.990570
7166.978423	1.473779	0.138606	1815.288818
7166.979330	1.469165	0.138606	3147.821289
7166.980280	0.834097	0.138606	3940.213135
7166.981187	0.097650	0.138606	4028.781738
7166.982097	0.087726	0.138606	4108.612305
7166.982999	0.087839	0.138606	4187.843262
7166.983951	0.088004	0.138606	4271.623047
7166.984847	0.087942	0.138606	4350.418945
7166.985751	0.087832	0.138606	4429.819336
7166.986637	0.087832	0.138606	4507.638672
7166.987571	0.087971	0.138606	4589.803711
7166.988477	0.087832	0.138606	4669.379395
7166.989370	0.087847	0.138606	4747.826660
7167.988184	1.008362	0.138929	446.704285
7167.989091	1.472692	0.138929	1782.435547
7167.989988	1.470289	0.138929	3101.285156
7167.990960	0.836854	0.138929	3914.707520
7167.991876	0.099137	0.138929	4005.517090
7167.992768	0.087715	0.138929	4083.758789
7167.993658	0.087784	0.138929	4161.886719
7167.994603	0.087817	0.138929	4244.874023
7167.995507	0.087806	0.138929	4324.250977
7167.996396	0.087762	0.138929	4402.271973
7167.997322	0.087883	0.138929	4483.651855
7167.998224	0.087931	0.138929	4562.965332
7167.999125	0.087806	0.138929	4642.079102
7168.000017	0.087883	0.138929	4720.471191
7169.047520	1.011500	0.139432	455.175110
7169.048445	1.473347	0.139432	1818.021240
7169.049342	1.469476	0.139432	3136.141602
7169.050294	0.824659	0.139432	3921.217285
7169.051198	0.098522	0.139432	4010.281006
7169.052105	0.087729	0.139432	4089.851562
7169.052996	0.087887	0.139432	4168.158691
7169.053943	0.088066	0.139432	4251.557617
7169.054856	0.087931	0.139432	4331.838379
7169.055751	0.087865	0.139432	4410.477539
7169.056677	0.087876	0.139432	4491.850586
7169.057586	0.087935	0.139432	4571.783203
7169.058501	0.087777	0.139432	4652.099121
7169.059392	0.087799	0.139432	4730.328125
7170.061265	1.006220	0.138010	445.755249
7170.062171	1.472589	0.138010	1779.921021
7170.063065	1.469513	0.138010	3093.665527
7170.064047	0.824542	0.138010	3903.365967
7170.064956	0.098716	0.138010	3993.098633
7170.065846	0.087817	0.138010	4071.256104
7170.066786	0.087960	0.138010	4153.938477
7170.067690	0.087913	0.138010	4233.411621
7170.068581	0.087839	0.138010	4311.676270
7170.069467	0.087762	0.138010	4389.433594
7170.070407	0.087927	0.138010	4472.084961
7170.071314	0.087861	0.138010	4551.775391
7170.072213	0.087891	0.138010	4630.789062
7170.073106	0.087762	0.138010	4709.161133
7171.119566	0.992530	0.139235	432.743286
7171.120458	1.470615	0.139235	1744.532104
7171.121435	1.468418	0.139235	3179.176514
7171.122339	0.847086	0.139235	3944.942383
7171.123225	0.100884	0.139235	4034.325439
7171.124181	0.087990	0.139235	4118.443359
7171.125075	0.087993	0.139235	4197.109375
7171.125969	0.087968	0.139235	4275.752441
7171.126886	0.087913	0.139235	4356.368164
7171.127809	0.088008	0.139235	4437.599609
7171.128714	0.087924	0.139235	4517.170410
7171.129603	0.087982	0.139235	4595.386719
7171.130540	0.087971	0.139235	4677.815918
7171.131450	0.087979	0.139235	4757.876465
7172.131799	1.001206	0.139247	442.533081
7172.132694	1.471575	0.139247	1759.592529
7172.133660	1.468553	0.139247	3178.215088
7172.134585	0.820338	0.139247	3937.027832
7172.135474	0.098892	0.139247	4024.942383
7172.136401	0.087788	0.139247	4106.321777
7172.137311	0.087993	0.139247	4186.395508
7172.138222	0.087854	0.139247	4266.430664
7172.139117	0.087843	0.139247	4345.050293
7172.140052	0.087997	0.139247	4427.327148
7172.140959	0.088022	0.139247	4507.163574
7172.141862	0.087891	0.139247	4586.528809
7172.142750	0.087814	0.139247	4664.507324
7172.143696	0.087935	0.139247	4747.693359
7173.189622	1.011885	0.138175	488.740356
7173.190547	1.476079	0.138175	1854.113525
7173.191460	1.467916	0.138175	3194.321045
7173.192368	0.812080	0.138175	3931.689697
7173.193316	0.096313	0.138175	4022.994873
7173.194213	0.087792	0.138175	4101.744141
7173.195112	0.087975	0.138175	4180.833496
7173.195998	0.087953	0.138175	4258.759766
7173.196936	0.087982	0.138175	4341.287109
7173.197846	0.087869	0.138175	4421.247559
7173.198738	0.087865	0.138175	4499.623047
7173.199671	0.087975	0.138175	4581.703613
7173.200576	0.088059	0.138175	4661.396973
7173.201471	0.087902	0.138175	4740.068848
7174.202834	0.995933	0.140202	437.214417
7174.203732	1.471553	0.140202	1758.668701
7174.204710	1.467989	0.140202	3194.362305
7174.205656	0.770222	0.140202	3922.992432
7174.206543	0.096808	0.140202	4008.861084
7174.207499	0.087927	0.140202	4092.919434
7174.208396	0.087869	0.140202	4171.737793
7174.209316	0.087927	0.140202	4252.630859
7174.210202	0.087953	0.140202	4330.557129
7174.211145	0.087986	0.140202	4413.527832
7174.212049	0.087898	0.140202	4492.987793
7174.212967	0.087960	0.140202	4573.735352
7174.213858	0.088004	0.140202	4652.146973
7174.214819	0.087986	0.140202	4736.701172
7175.260628	1.009962	0.139787	449.433136
7175.261529	1.472336	0.139787	1776.008179
7175.262423	1.469766	0.139787	3089.978516
7175.263406	0.825560	0.139787	3901.504395
7175.264313	0.098522	0.139787	3990.863525
7175.265209	0.087836	0.139787	4069.564209
7175.266145	0.087737	0.139787	4151.686035
7175.267050	0.087671	0.139787	4231.028320
7175.267945	0.087832	0.139787	4309.638184
7175.268832	0.087825	0.139787	4387.538574
7175.269787	0.087913	0.139787	4471.495117
7175.270693	0.087913	0.139787	4551.144043
7175.271597	0.087806	0.139787	4630.520996
7175.272488	0.087872	0.139787	4708.815430
7176.275408	0.991172	0.139247	433.142120
7176.276382	1.475500	0.139247	1870.279541
7176.277295	1.467700	0.139247	3210.290039
7176.278203	0.811582	0.139247	3947.206543
7176.279087	0.098939	0.139247	4034.668701
7176.280023	0.087909	0.139247	4116.951660
7176.280923	0.087938	0.139247	4196.096191
7176.281824	0.087858	0.139247	4275.255859
7176.282758	0.088063	0.139247	4357.506348
7176.283666	0.087971	0.139247	4437.384277
7176.284568	0.087861	0.139247	4516.635254
7176.285456	0.087784	0.139247	4594.587891
7176.286410	0.087997	0.139247	4678.537109
7176.287316	0.087968	0.139247	4758.235840
7177.331666	0.999269	0.140762	439.678284
7177.332613	1.472677	0.140762	1834.303467
7177.333524	1.468737	0.140762	3172.322266
7177.334427	0.853099	0.140762	3942.670898
7177.335314	0.101246	0.140762	4032.476318
7177.336242	0.087942	0.140762	4114.086426
7177.337153	0.088000	0.140762	4194.254883
7177.338059	0.087968	0.140762	4273.953613
7177.338945	0.087825	0.140762	4351.766113
7177.339896	0.087938	0.140762	4435.395508
7177.340802	0.087931	0.140762	4515.061035
7177.341695	0.087869	0.140762	4593.527832
7177.342637	0.088000	0.140762	4676.424316
7177.343542	0.087997	0.140762	4756.061523
7178.345420	0.995665	0.139219	435.105713
7178.346383	1.473919	0.139219	1854.489258
7178.347306	1.466755	0.139219	3208.304199
7178.348212	0.814640	0.139219	3946.367920
7178.349139	0.098719	0.139219	4037.880859
7178.350042	0.087957	0.139219	4117.305664
7178.350952	0.087883	0.139219	4197.279297
7178.351846	0.087913	0.139219	4275.873047
7178.352774	0.087957	0.139219	4357.496582
7178.353683	0.087942	0.139219	4437.435547
7178.354581	0.087909	0.139219	4516.377930
7178.355466	0.087880	0.139219	4594.151367
7178.356417	0.087931	0.139219	4677.773437
7178.357317	0.087938	0.139219	4756.917969
7179.402740	1.041617	0.141132	491.643402
7179.403653	1.474208	0.141132	1837.595093
7179.404558	1.468923	0.141132	3166.970703
7179.405459	0.841362	0.141132	3925.038086
7179.406416	0.096888	0.141132	4017.760254
7179.407314	0.087770	0.141132	4096.577637
7179.408212	0.087894	0.141132	4175.506836
7179.409137	0.087909	0.141132	4256.822754
7179.410050	0.088019	0.141132	4337.184082
7179.410952	0.087755	0.141132	4416.339355
7179.411846	0.087876	0.141132	4494.900391
7179.412787	0.088004	0.141132	4577.712402
7179.413692	0.087836	0.141132	4657.203613
7179.414592	0.087924	0.141132	4736.334961
7180.416474	1.020165	0.139158	458.054016
7180.417407	1.474475	0.139158	1833.739258
7180.418316	1.468645	0.139158	3168.737549
7180.419233	0.841798	0.139158	3940.666504
7180.420170	0.096899	0.139158	4031.461182
7180.421069	0.087700	0.139158	4110.303711
7180.421956	0.087894	0.139158	4188.266113
7180.422902	0.087986	0.139158	4271.500488
7180.423805	0.087891	0.139158	4350.865723
7180.424702	0.087850	0.139158	4429.667480
7180.425587	0.087726	0.139158	4507.304687
7180.426513	0.087748	0.139158	4588.559082
7180.427414	0.087664	0.139158	4667.543945
7180.428331	0.087777	0.139158	4748.035645
7181.474755	0.993442	0.140512	432.147461
7181.475725	1.473640	0.140512	1861.578369
7181.476644	1.467667	0.140512	3210.364502
7181.477560	0.799058	0.140512	3942.301270
7181.478446	0.098353	0.140512	4029.442383
7181.479393	0.087902	0.140512	4112.685059
7181.480304	0.087850	0.140512	4192.716797
7181.481195	0.088022	0.140512	4271.145020
7181.482122	0.087949	0.140512	4352.673828
7181.483034	0.087964	0.140512	4432.896973
7181.483945	0.087810	0.140512	4512.892090
7181.484840	0.087902	0.140512	4591.563965
7181.485773	0.088015	0.140512	4673.682129
7181.486677	0.087927	0.140512	4753.168457
7182.488524	1.008230	0.140947	443.621185
7182.489492	1.475548	0.140947	1871.951782
7182.490410	1.467759	0.140947	3219.354492
7182.491313	0.812538	0.140947	3953.076172
7182.492239	0.097819	0.140947	4043.656250
7182.493148	0.087828	0.140947	4123.492187
7182.494051	0.087920	0.140947	4202.883789
7182.494943	0.087949	0.140947	4281.334473
7182.495887	0.088103	0.140947	4364.503906
7182.496788	0.087979	0.140947	4443.772461
7182.497679	0.087971	0.140947	4522.154785
7182.498582	0.087957	0.140947	4601.579590
7182.499499	0.088048	0.140947	4682.319824
7182.500399	0.087773	0.140947	4761.315918
7183.545344	1.018586	0.140230	500.125916
7183.546262	1.475028	0.140230	1854.201660
7183.547173	1.466188	0.140230	3189.898926
7183.548076	0.827172	0.140230	3936.834961
7183.549027	0.095991	0.140230	4028.122559
7183.549936	0.087839	0.140230	4107.968750
7183.550835	0.087909	0.140230	4186.999023
7183.551719	0.087927	0.140230	4264.726562
7183.552677	0.087905	0.140230	4348.939941
7183.553588	0.087913	0.140230	4429.028320
7183.554484	0.087924	0.140230	4507.807617
7183.555412	0.087924	0.140230	4589.400879
7183.556318	0.087887	0.140230	4669.026367
7183.557225	0.087876	0.140230	4748.729980
7184.559064	1.011647	0.140613	447.147858
7184.559983	1.473490	0.140613	1801.285156
7184.560891	1.469290	0.140613	3135.399902
7184.561836	0.848650	0.140613	3937.374023
7184.562744	0.098423	0.140613	4026.741943
7184.563653	0.087755	0.140613	4106.511230
7184.564546	0.087913	0.140613	4185.017090
7184.565489	0.087814	0.140613	4267.825195
7184.566396	0.087865	0.140613	4347.518555
7184.567293	0.087876	0.140613	4426.343262
7184.568176	0.087872	0.140613	4503.934570
7184.569112	0.087993	0.140613	4586.296387
7184.570019	0.087957	0.140613	4666.072754
7184.570915	0.087887	0.140613	4744.819336
7185.617353	0.990150	0.140311	430.715332
7185.618250	1.470937	0.140311	1750.146240
7185.619217	1.468590	0.140311	3170.272949
7185.620138	0.832694	0.140311	3937.184082
7185.621035	0.099287	0.140311	4026.244629
7185.621977	0.087751	0.140311	4108.906738
7185.622882	0.087876	0.140311	4188.434570
7185.623778	0.087850	0.140311	4267.148437
7185.624662	0.087854	0.140311	4344.811523
7185.625598	0.087675	0.140311	4426.875000
7185.626510	0.087561	0.140311	4506.730469
7185.627406	0.087642	0.140311	4585.257324
7185.628323	0.087806	0.140311	4665.775879
7185.629253	0.088008	0.140311	4747.623047
7186.630114	1.022256	0.140089	469.215454
7186.631014	1.473080	0.140089	1794.987305
7186.631966	1.468326	0.140089	3192.833984
7186.632884	0.816189	0.140089	3942.095459
7186.633787	0.098188	0.140089	4030.759766
7186.634676	0.087832	0.140089	4108.842285
7186.635628	0.087975	0.140089	4192.594238
7186.636536	0.087847	0.140089	4272.358887
7186.637433	0.087880	0.140089	4351.187012
7186.638362	0.087850	0.140089	4432.799805
7186.639263	0.087968	0.140089	4512.058594
7186.640160	0.087843	0.140089	4590.854004
7186.641048	0.087865	0.140089	4668.877930
7186.641988	0.087964	0.140089	4751.563965
7187.688920	1.012954	0.140927	454.816406
7187.689844	1.473380	0.140927	1816.219604
7187.690749	1.469048	0.140927	3145.708008
7187.691713	0.810571	0.140927	3927.098633
7187.692606	0.098218	0.140927	4014.807129
7187.693504	0.087693	0.140927	4093.555420
7187.694392	0.087880	0.140927	4171.592773
7187.695329	0.087850	0.140927	4253.908691
7187.696233	0.087795	0.140927	4333.275879
7187.697138	0.087880	0.140927	4412.807129
7187.698027	0.087832	0.140927	4490.889648
7187.698976	0.088011	0.140927	4574.412598
7187.699882	0.087850	0.140927	4654.004883
7187.700782	0.087843	0.140927	4733.063477
7188.700629	1.001202	0.140637	442.531494
7188.701564	1.472677	0.140637	1819.484497
7188.702487	1.468367	0.140637	3174.787109
7188.703397	0.842922	0.140637	3941.846436
7188.704282	0.100477	0.140637	4030.768799
7188.705240	0.087843	0.140637	4114.922363
7188.706143	0.087539	0.140637	4193.970215
7188.707048	0.087539	0.140637	4273.192871
7188.707948	0.087887	0.140637	4352.291016
7188.708876	0.087942	0.140637	4433.900879
7188.709783	0.087832	0.140637	4513.564453
7188.710675	0.087891	0.140637	4591.962891
7188.711604	0.087814	0.140637	4673.541992
7188.712510	0.087898	0.140637	4753.177734
7189.759452	1.014291	0.141757	463.530853
7189.760348	1.472421	0.141757	1782.819824
7189.761285	1.469128	0.141757	3159.393066
7189.762218	0.836803	0.141757	3940.130371
7189.763119	0.098943	0.141757	4029.277832
7189.764023	0.087898	0.141757	4108.737793
7189.764954	0.087971	0.141757	4190.639160
7189.765859	0.087931	0.141757	4270.216797
7189.766770	0.087883	0.141757	4350.278320
7189.767658	0.087964	0.141757	4428.390137
7189.768599	0.087953	0.141757	4511.153809
7189.769505	0.087869	0.141757	4590.762695
7189.770397	0.087869	0.141757	4669.141602
7189.771339	0.087957	0.141757	4751.996582
7190.770645	1.005762	0.144041	446.558228
7190.771585	1.472358	0.144041	1830.575073
7190.772514	1.468096	0.144041	3194.436035
7190.773427	0.817863	0.144041	3941.144531
7190.774312	0.099071	0.144041	4028.822510
7190.775247	0.087836	0.144041	4110.948730
7190.776160	0.087869	0.144041	4191.172852
7190.777061	0.087850	0.144041	4270.326172
7190.777950	0.087719	0.144041	4348.308105
7190.778881	0.087935	0.144041	4430.175293
7190.779801	0.087814	0.144041	4510.963867
7190.780695	0.087770	0.144041	4589.430176
7190.781623	0.087887	0.144041	4670.989258
7190.782542	0.087839	0.144041	4751.713867
7191.831519	1.020483	0.140556	461.258484
7191.832434	1.473651	0.140556	1809.649414
7191.833341	1.469260	0.140556	3142.268555
7191.834240	0.867697	0.140556	3922.327637
7191.835190	0.098895	0.140556	4016.278076
7191.836101	0.087693	0.140556	4096.166504
7191.836991	0.087843	0.140556	4174.346680
7191.837916	0.087898	0.140556	4255.652344
7191.838823	0.087971	0.140556	4335.442383
7191.839729	0.087839	0.140556	4415.024902
7191.840619	0.087814	0.140556	4493.179199
7191.841551	0.087964	0.140556	4575.161621
7191.842452	0.087828	0.140556	4654.294922
7191.843360	0.087799	0.140556	4734.016602
7192.841224	1.042551	0.142091	521.275635
7192.842133	1.476145	0.142091	1863.091431
7192.843038	1.467825	0.142091	3191.472656
7192.843940	0.826465	0.142091	3936.943848
7192.844893	0.095665	0.142091	4028.112793
7192.845805	0.087832	0.142091	4108.215820
7192.846700	0.087927	0.142091	4186.910645
7192.847624	0.087935	0.142091	4268.162109
7192.848538	0.087883	0.142091	4348.487305
7192.849441	0.087891	0.142091	4427.852539
7192.850336	0.087920	0.142091	4506.541016
7192.851273	0.087953	0.142091	4588.952637
7192.852170	0.087902	0.142091	4667.800293
7192.853074	0.087814	0.142091	4747.184082
7193.903056	0.997599	0.141571	440.938690
7193.903952	1.471216	0.141571	1759.148071
7193.904917	1.468806	0.141571	3176.545898
7193.905838	0.825355	0.141571	3936.697998
7193.906736	0.098441	0.141571	4025.098145
7193.907622	0.087598	0.141571	4102.709473
7193.908561	0.087869	0.141571	4185.218262
7193.909466	0.087861	0.141571	4264.732910
7193.910356	0.087719	0.141571	4342.802246
7193.911277	0.087869	0.141571	4423.729492
7193.912191	0.087817	0.141571	4503.994629
7193.913095	0.087806	0.141571	4583.371582
7193.913986	0.087847	0.141571	4661.643066
7193.914924	0.087935	0.141571	4744.125488
7194.912221	1.014203	0.140194	460.448090
7194.913117	1.472629	0.140194	1779.924072
7194.914033	1.469594	0.140194	3126.071777
7194.914981	0.847244	0.140194	3929.258789
7194.915882	0.099730	0.140194	4019.115723
7194.916775	0.087920	0.140194	4097.628418
7194.917711	0.088000	0.140194	4179.997070
7194.918616	0.087913	0.140194	4259.558105
7194.919518	0.087927	0.140194	4338.868652
7194.920406	0.087931	0.140194	4416.951172
7194.921347	0.088041	0.140194	4499.797363
7194.922256	0.087858	0.140194	4579.660156
7194.923145	0.087927	0.140194	4657.827637
7194.924062	0.087817	0.140194	4738.355957
7195.974625	1.020992	0.141148	463.530548
7195.975546	1.473179	0.141148	1820.328125
7195.976441	1.469180	0.141148	3135.244141
7195.977393	0.833906	0.141148	3929.122803
7195.978302	0.097628	0.141148	4017.866699
7195.979197	0.087806	0.141148	4096.453613
7195.980085	0.087986	0.141148	4174.584961
7195.981024	0.087883	0.141148	4257.107422
7195.981928	0.087887	0.141148	4336.557129
7195.982833	0.087916	0.141148	4416.121582
7195.983728	0.087839	0.141148	4494.737793
7195.984670	0.088037	0.141148	4577.668945
7195.985579	0.087671	0.141148	4657.361816
7195.986468	0.087480	0.141148	4735.131836
7196.983240	0.989059	0.141644	428.262512
7196.984183	1.473241	0.141644	1817.528809
7196.985102	1.468693	0.141644	3167.257324
7196.986018	0.841567	0.141644	3938.133057
7196.986903	0.100272	0.141644	4026.874023
7196.987857	0.087733	0.141644	4110.571289
7196.988767	0.087880	0.141644	4190.541992
7196.989656	0.087854	0.141644	4268.644043
7196.990581	0.087905	0.141644	4349.956543
7196.991494	0.087953	0.141644	4430.257324
7196.992404	0.087880	0.141644	4510.228027
7196.993301	0.087880	0.141644	4589.056152
7196.994233	0.088011	0.141644	4671.083008
7196.995140	0.087847	0.141644	4750.759766
7198.045140	1.009940	0.140608	451.443298
7198.046042	1.472567	0.140608	1779.698730
7198.046935	1.469502	0.140608	3091.963867
7198.047918	0.826132	0.140608	3904.051270
7198.048823	0.098763	0.140608	3993.432129
7198.049717	0.087762	0.140608	4071.891846
7198.050661	0.087957	0.140608	4154.922852
7198.051560	0.088052	0.140608	4234.081543
7198.052455	0.087894	0.140608	4312.747070
7198.053347	0.087946	0.140608	4391.194336
7198.054284	0.087924	0.140608	4473.578613
7198.055178	0.087872	0.140608	4552.136230
7198.056079	0.087880	0.140608	4631.315918
7198.056966	0.087894	0.140608	4709.278320
7199.053789	1.006003	0.143529	448.677521
7199.054686	1.471677	0.143529	1768.771973
7199.055655	1.468004	0.143529	3191.268066
7199.056585	0.801031	0.143529	3936.227295
7199.057470	0.098210	0.143529	4023.143555
7199.058410	0.087872	0.143529	4105.743652
7199.059314	0.087931	0.143529	4185.233398
7199.060232	0.087869	0.143529	4265.896973
7199.061119	0.087836	0.143529	4343.807129
7199.062070	0.087836	0.143529	4427.338867
7199.062972	0.087792	0.143529	4506.526855
7199.063893	0.087832	0.143529	4587.419922
7199.064788	0.087839	0.143529	4666.036133
7199.065745	0.087539	0.143529	4749.811035
7200.117261	1.067417	0.141531	539.045593
7200.118173	1.476383	0.141531	1885.507080
7200.119076	1.467931	0.141531	3211.048828
7200.119973	0.820902	0.141531	3947.397949
7200.120908	0.096500	0.141531	4037.625732
7200.121822	0.087839	0.141531	4117.911133
7200.122718	0.087898	0.141531	4196.667480
7200.123652	0.087935	0.141531	4278.798340
7200.124561	0.087960	0.141531	4358.754395
7200.125457	0.087905	0.141531	4437.517578
7200.126346	0.088048	0.141531	4515.792480
7200.127308	0.087938	0.141531	4600.389160
7200.128209	0.087993	0.141531	4679.670898
7200.129106	0.087924	0.141531	4758.538574
7201.124812	0.996570	0.143130	436.497589
7201.125716	1.471967	0.143130	1767.155273
7201.126610	1.470209	0.143130	3081.521973
7201.127576	0.862112	0.143130	3914.322021
7201.128481	0.101199	0.143130	4005.906982
7201.129372	0.087792	0.143130	4084.129395
7201.130311	0.087891	0.143130	4166.658691
7201.131212	0.087913	0.143130	4245.868164
7201.132108	0.087891	0.143130	4324.618164
7201.133002	0.087883	0.143130	4403.186035
7201.133940	0.087924	0.143130	4485.658203
7201.134845	0.087938	0.143130	4565.242187
7201.135746	0.087891	0.143130	4644.431641
7201.136632	0.087828	0.143130	4722.247559
7202.189291	1.017363	0.140419	480.195496
7202.190203	1.474351	0.140419	1824.803223
7202.191098	1.468619	0.140419	3139.217529
7202.192078	0.791034	0.140419	3914.430664
7202.193001	0.096302	0.140419	4003.317871
7202.193891	0.087876	0.140419	4081.527588
7202.194819	0.087986	0.140419	4163.178223
7202.195733	0.087814	0.140419	4243.439941
7202.196651	0.087894	0.140419	4324.126953
7202.197549	0.087997	0.140419	4403.147949
7202.198488	0.087902	0.140419	4485.687500
7202.199405	0.087854	0.140419	4566.249512
7202.200326	0.087865	0.140419	4647.173340
7202.201211	0.087883	0.140419	4724.950195
7203.195346	0.998335	0.143404	439.267395
7203.196242	1.471348	0.143404	1757.594971
7203.197211	1.468517	0.143404	3180.587891
7203.198134	0.823773	0.143404	3940.930664
7203.199026	0.099207	0.143404	4029.422852
7203.199951	0.087887	0.143404	4110.718262
7203.200855	0.087913	0.143404	4190.191406
7203.201766	0.087894	0.143404	4270.263184
7203.202666	0.087946	0.143404	4349.414062
7203.203604	0.087872	0.143404	4431.838379
7203.204512	0.088004	0.143404	4511.746094
7203.205418	0.087905	0.143404	4591.388184
7203.206305	0.087927	0.143404	4669.379883
7203.207262	0.088015	0.143404	4753.610352
7204.259832	1.009607	0.141962	489.659302
7204.260752	1.475566	0.141962	1847.180420
7204.261667	1.467792	0.141962	3190.209961
7204.262572	0.821107	0.141962	3933.312012
7204.263508	0.096401	0.141962	4023.543701
7204.264414	0.087843	0.141962	4103.129395
7204.265317	0.087927	0.141962	4182.527832
7204.266202	0.087876	0.141962	4260.297852
7204.267148	0.087942	0.141962	4343.490723
7204.268057	0.087902	0.141962	4423.393066
7204.268952	0.087872	0.141962	4502.038574
7204.269889	0.087931	0.141962	4584.429687
7204.270794	0.087946	0.141962	4664.020508
7204.271695	0.087913	0.141962	4743.229980
7205.267406	0.997452	0.143110	438.879059
7205.268303	1.471674	0.143110	1758.970215
7205.269197	1.470688	0.143110	3073.765625
7205.270174	0.856014	0.143110	3910.091797
7205.271074	0.101052	0.143110	4001.038818
7205.271975	0.087806	0.143110	4080.152344
7205.272857	0.087850	0.143110	4157.636230
7205.273797	0.087909	0.143110	4240.270508
7205.274711	0.087777	0.143110	4320.499023
7205.275608	0.087883	0.143110	4399.330566
7205.276527	0.087927	0.143110	4480.135742
7205.277434	0.087960	0.143110	4559.915527
7205.278339	0.087799	0.143110	4639.373535
7205.279225	0.087828	0.143110	4717.189453
7206.330835	1.006337	0.140544	446.813477
7206.331746	1.472761	0.140544	1788.498901
7206.332640	1.470015	0.140544	3102.691895
7206.333607	0.839220	0.140544	3914.217773
7206.334513	0.099327	0.140544	4004.208496
7206.335410	0.087733	0.140544	4082.905029
7206.336298	0.087916	0.140544	4160.974609
7206.337240	0.087924	0.140544	4243.798828
7206.338153	0.087949	0.140544	4324.096680
7206.339058	0.087894	0.140544	4403.641113
7206.339954	0.087836	0.140544	4482.341797
7206.340900	0.087880	0.140544	4565.476074
7206.341798	0.087832	0.140544	4644.349121
7206.342688	0.087880	0.140544	4722.562012
7207.337428	1.012207	0.142840	452.456543
7207.338328	1.472190	0.142840	1777.427612
7207.339222	1.469993	0.142840	3091.601074
7207.340211	0.815826	0.142840	3898.453369
7207.341116	0.098046	0.142840	3987.184570
7207.342009	0.087766	0.142840	4065.559814
7207.342947	0.088004	0.142840	4148.107910
7207.343848	0.088022	0.142840	4227.416016
7207.344740	0.087887	0.142840	4305.811035
7207.345622	0.087920	0.142840	4383.356445
7207.346562	0.087982	0.142840	4466.059570
7207.347472	0.088000	0.142840	4546.140137
7207.348379	0.087872	0.142840	4625.840332
7207.349267	0.087935	0.142840	4703.926270
7208.402962	1.052439	0.141938	539.901184
7208.403883	1.477137	0.141938	1900.344727
7208.404791	1.466913	0.141938	3232.301514
7208.405691	0.792440	0.141938	3945.497559
7208.406643	0.094332	0.141938	4035.302002
7208.407552	0.087869	0.141938	4115.174805
7208.408441	0.087839	0.141938	4193.264160
7208.409347	0.087905	0.141938	4272.906250
7208.410251	0.087979	0.141938	4352.438965
7208.411163	0.087887	0.141938	4432.591797
7208.412058	0.087869	0.141938	4511.234375
7208.412997	0.087971	0.141938	4593.839355
7208.413900	0.088019	0.141938	4673.320312
7208.414806	0.087817	0.141938	4752.882812
7209.409480	1.006472	0.143972	444.860687
7209.410449	1.475354	0.143972	1874.478760
7209.411355	1.467957	0.143972	3204.447266
7209.412258	0.827714	0.143972	3951.872559
7209.413199	0.099012	0.143972	4045.043213
7209.414122	0.087880	0.143972	4126.156250
7209.415028	0.087942	0.143972	4205.831543
7209.415919	0.087843	0.143972	4284.099609
7209.416861	0.088008	0.143972	4367.002930
7209.417769	0.087883	0.143972	4446.800781
7209.418667	0.087986	0.143972	4525.812012
7209.419552	0.087946	0.143972	4603.644043
7209.420478	0.087920	0.143972	4685.058105
7209.421380	0.087964	0.143972	4764.401367
7210.473481	1.067260	0.139037	525.091675
7210.474394	1.475680	0.139037	1872.387451
7210.475293	1.468246	0.139037	3192.340332
7210.476260	0.761045	0.139037	3928.270752
7210.477162	0.096101	0.139037	4014.953857
7210.478057	0.087847	0.139037	4093.576660
7210.478946	0.087887	0.139037	4171.708008
7210.479885	0.088004	0.139037	4254.343750
7210.480798	0.087872	0.139037	4334.571289
7210.481692	0.087869	0.139037	4413.125977
7210.482626	0.087960	0.139037	4495.280762
7210.483531	0.087938	0.139037	4574.864746
7210.484428	0.087883	0.139037	4653.696289
7210.485314	0.087924	0.139037	4731.596680
7211.480012	0.996687	0.142288	436.548889
7211.480928	1.472501	0.142288	1785.359863
7211.481832	1.469597	0.142288	3113.875732
7211.482794	0.833434	0.142288	3915.639160
7211.483698	0.099221	0.142288	4005.335205
7211.484598	0.087755	0.142288	4084.314941
7211.485481	0.087869	0.142288	4161.902832
7211.486424	0.087990	0.142288	4244.876953
7211.487330	0.087869	0.142288	4324.485840
7211.488222	0.087839	0.142288	4402.838379
7211.489161	0.087828	0.142288	4485.309082
7211.490065	0.087990	0.142288	4564.851562
7211.490973	0.087832	0.142288	4644.603027
7211.491869	0.087894	0.142288	4723.356445
7212.543978	1.023212	0.142788	474.770233
7212.544875	1.473490	0.142788	1796.490845
7212.545824	1.468433	0.142788	3190.033203
7212.546760	0.785599	0.142788	3925.354248
7212.547665	0.096782	0.142788	4012.942139
7212.548558	0.087737	0.142788	4091.291016
7212.549490	0.087979	0.142788	4173.287109
7212.550397	0.087850	0.142788	4252.967285
7212.551302	0.087854	0.142788	4332.475098
7212.552190	0.087924	0.142788	4410.551270
7212.553130	0.087975	0.142788	4493.247559
7212.554042	0.087799	0.142788	4573.320312
7212.554933	0.087825	0.142788	4651.572266
7212.555869	0.087865	0.142788	4733.813965
7213.551050	0.992197	0.142905	433.590179
7213.551944	1.470945	0.142905	1748.614868
7213.552914	1.468345	0.142905	3172.909180
7213.553849	0.811465	0.142905	3931.628906
7213.554747	0.097844	0.142905	4019.492920
7213.555685	0.087938	0.142905	4101.979004
7213.556590	0.087993	0.142905	4181.612793
7213.557491	0.087865	0.142905	4260.779297
7213.558380	0.087920	0.142905	4338.939941
7213.559325	0.087971	0.142905	4422.072754
7213.560228	0.087916	0.142905	4501.460937
7213.561128	0.087931	0.142905	4580.598633
7213.562014	0.087946	0.142905	4658.518555
7213.562967	0.088033	0.142905	4742.414551
7214.615003	1.002418	0.144041	451.088226
7214.615903	1.472267	0.144041	1776.128418
7214.616860	1.469147	0.144041	3182.101807
7214.617779	0.818225	0.144041	3934.050781
7214.618685	0.097566	0.144041	4022.445557
7214.619588	0.087777	0.144041	4101.708496
7214.620554	0.087708	0.144041	4186.434082
7214.621463	0.087968	0.144041	4266.396484
7214.622383	0.087913	0.144041	4347.275879
7214.623273	0.087938	0.144041	4425.541016
7214.624224	0.087990	0.144041	4509.219238
7214.625145	0.087854	0.144041	4590.132812
7214.626030	0.087883	0.144041	4667.909668
7214.626991	0.087854	0.144041	4752.337402
7215.622153	1.031708	0.144476	515.853882
7215.623074	1.476105	0.144476	1875.346313
7215.623979	1.467631	0.144476	3203.552002
7215.624875	0.820195	0.144476	3938.447021
7215.625820	0.095662	0.144476	4028.847168
7215.626723	0.087946	0.144476	4108.262207
7215.627623	0.087832	0.144476	4187.311035
7215.628511	0.087949	0.144476	4265.410156
7215.629467	0.088041	0.144476	4349.577148
7215.630373	0.087927	0.144476	4429.239258
7215.631272	0.087964	0.144476	4508.318848
7215.632206	0.087858	0.144476	4590.377930
7215.633107	0.087843	0.144476	4669.524414
7215.634003	0.087850	0.144476	4748.238281
7216.686032	1.005809	0.143509	448.590942
7216.686952	1.472867	0.143509	1803.628906
7216.687853	1.470143	0.143509	3128.227539
7216.688818	0.820547	0.143509	3920.055176
7216.689716	0.098943	0.143509	4008.905762
7216.690613	0.087861	0.143509	4087.717285
7216.691499	0.087927	0.143509	4165.620605
7216.692438	0.087946	0.143509	4248.201660
7216.693346	0.087949	0.143509	4328.059570
7216.694248	0.087931	0.143509	4407.373047
7216.695159	0.087913	0.143509	4487.461426
7216.696085	0.088044	0.143509	4568.990723
7216.696994	0.087924	0.143509	4648.913086
7216.697892	0.087986	0.143509	4727.924316
7217.693146	1.015635	0.145515	453.988739
7217.694050	1.472534	0.145515	1785.159668
7217.694945	1.469377	0.145515	3100.252441
7217.695931	0.815105	0.145515	3903.945801
7217.696838	0.098313	0.145515	3993.115723
7217.697723	0.087755	0.145515	4070.779053
7217.698647	0.087920	0.145515	4152.017090
7217.699552	0.087979	0.145515	4231.637695
7217.700451	0.087843	0.145515	4310.608398
7217.701338	0.088000	0.145515	4388.665039
7217.702291	0.087997	0.145515	4472.525879
7217.703190	0.087876	0.145515	4551.526367
7217.704088	0.087905	0.145515	4630.465332
7217.704974	0.087803	0.145515	4708.258789
7218.757087	1.010226	0.143594	457.632263
7218.757986	1.472966	0.143594	1781.828857
7218.758935	1.469000	0.143594	3175.910156
7218.759874	0.805217	0.143594	3932.009277
7218.760776	0.097167	0.143594	4019.653809
7218.761695	0.087777	0.143594	4100.320801
7218.762606	0.088077	0.143594	4180.559082
7218.763513	0.087920	0.143594	4260.302246
7218.764401	0.087913	0.143594	4338.368652
7218.765339	0.087946	0.143594	4420.861816
7218.766231	0.087986	0.143594	4499.345215
7218.767132	0.087836	0.143594	4578.485352
7218.768023	0.087902	0.143594	4656.805664
7218.768967	0.088015	0.143594	4739.892090
7219.765271	1.077188	0.143537	557.983154
7219.766180	1.477119	0.143537	1900.684570
7219.767097	1.467100	0.143537	3246.015137
7219.767998	0.783662	0.143537	3952.094727
7219.768949	0.094603	0.143537	4042.062500
7219.769857	0.087759	0.143537	4121.747559
7219.770746	0.087902	0.143537	4199.892090
7219.771684	0.087964	0.143537	4282.402344
7219.772582	0.088077	0.143537	4361.495605
7219.773481	0.087924	0.143537	4440.539062
7219.774370	0.087887	0.143537	4518.670410
7219.775307	0.088055	0.143537	4601.178223
7219.776216	0.087909	0.143537	4681.087402
7219.777119	0.087960	0.143537	4760.515625
7220.828143	1.016569	0.143046	483.886627
7220.829079	1.476262	0.143046	1865.667969
7220.829999	1.467030	0.143046	3215.335449
7220.830905	0.800219	0.143046	3940.333496
7220.831850	0.095771	0.143046	4030.837646
7220.832760	0.087876	0.143046	4110.804687
7220.833666	0.087975	0.143046	4190.509766
7220.834552	0.087909	0.143046	4268.396973
7220.835504	0.088037	0.143046	4352.208496
7220.836403	0.087887	0.143046	4431.218750
7220.837295	0.087799	0.143046	4509.535645
7220.838232	0.087924	0.143046	4591.919922
7220.839123	0.088063	0.143046	4670.383789
7220.840035	0.087876	0.143046	4750.526855
7221.836750	0.991692	0.144858	435.352753
7221.837643	1.470901	0.144858	1748.867310
7221.838614	1.468528	0.144858	3174.807861
7221.839536	0.837557	0.144858	3947.035645
7221.840430	0.099705	0.144858	4036.171631
7221.841342	0.087832	0.144858	4116.274414
7221.842264	0.087968	0.144858	4197.380371
7221.843174	0.087883	0.144858	4277.354004
7221.844070	0.087880	0.144858	4356.094238
7221.844995	0.087997	0.144858	4437.491211
7221.845901	0.088070	0.144858	4517.282715
7221.846807	0.087916	0.144858	4596.935059
7221.847694	0.087990	0.144858	4674.981934
7221.848630	0.087953	0.144858	4757.305664
7222.898656	1.015159	0.144310	453.775909
7222.899576	1.473702	0.144310	1809.582153
7222.900481	1.469106	0.144310	3139.123535
7222.901434	0.829951	0.144310	3930.066895
7222.902342	0.097870	0.144310	4018.932617
7222.903243	0.087700	0.144310	4097.950684
7222.904135	0.087803	0.144310	4176.270508
7222.905096	0.087905	0.144310	4260.747559
7222.905998	0.087847	0.144310	4339.985352
7222.906893	0.087964	0.144310	4418.712891
7222.907782	0.087953	0.144310	4496.902832
7222.908736	0.087850	0.144310	4580.711914
7222.909645	0.087927	0.144310	4660.637695
7222.910537	0.087847	0.144310	4738.997070
7223.908351	1.047806	0.143839	507.138275
7223.909267	1.475427	0.143839	1858.629639
7223.910175	1.468169	0.143839	3191.727051
7223.911084	0.815852	0.143839	3933.336426
7223.912023	0.096321	0.143839	4023.781738
7223.912932	0.087960	0.143839	4103.737793
7223.913828	0.087931	0.143839	4182.523926
7223.914758	0.088030	0.143839	4264.391602
7223.915660	0.087990	0.143839	4343.758301
7223.916568	0.087876	0.143839	4423.549805
7223.917456	0.087993	0.143839	4501.687500
7223.918412	0.087982	0.143839	4585.798340
7223.919307	0.087891	0.143839	4664.460449
7223.920201	0.087891	0.143839	4743.034668
7224.969169	1.006677	0.143747	448.978058
7224.970078	1.472443	0.143747	1787.428345
7224.970971	1.470147	0.143747	3100.269043
7224.971953	0.818401	0.143747	3903.938721
7224.972864	0.098339	0.143747	3993.525146
7224.973765	0.087854	0.143747	4072.681641
7224.974651	0.087938	0.143747	4150.594727
7224.975589	0.088008	0.143747	4233.145996
7224.976484	0.087839	0.143747	4311.762207
7224.977375	0.087861	0.143747	4390.046875
7224.978309	0.087957	0.143747	4472.198242
7224.979223	0.087913	0.143747	4552.550293
7224.980122	0.087839	0.143747	4631.518066
7224.981006	0.087854	0.143747	4709.181152
7225.979853	0.995273	0.145237	437.920319
7225.980744	1.470926	0.145237	1748.515747
7225.981703	1.468649	0.145237	3156.949707
7225.982634	0.825026	0.145237	3925.048584
7225.983532	0.098716	0.145237	4013.695312
7225.984470	0.087935	0.145237	4096.177734
7225.985374	0.087971	0.145237	4175.703613
7225.986275	0.087916	0.145237	4254.916016
7225.987165	0.087887	0.145237	4333.135254
7225.988114	0.087971	0.145237	4416.620117
7225.989013	0.088037	0.145237	4495.765625
7225.989914	0.087942	0.145237	4575.001465
7225.990798	0.087924	0.145237	4652.726074
7225.991742	0.088000	0.145237	4735.798340
7227.040240	1.031686	0.144302	484.892273
7227.041146	1.474307	0.144302	1820.614014
7227.042085	1.467920	0.144302	3198.990723
7227.043007	0.795732	0.144302	3932.656006
7227.043931	0.095933	0.144302	4021.297852
7227.044817	0.087795	0.144302	4099.084473
7227.045767	0.087898	0.144302	4182.587402
7227.046663	0.087847	0.144302	4261.297852
7227.047552	0.087872	0.144302	4339.416504
7227.048501	0.087880	0.144302	4422.814453
7227.049408	0.087854	0.144302	4502.498047
7227.050309	0.087821	0.144302	4581.625000
7227.051197	0.087990	0.144302	4659.759766
7227.052122	0.087814	0.144302	4740.987305
7228.051417	1.006560	0.143231	442.886383
7228.052340	1.473241	0.143231	1802.687744
7228.053244	1.469663	0.143231	3131.263184
7228.054208	0.830640	0.143231	3931.999756
7228.055116	0.097225	0.143231	4020.280273
7228.056021	0.087773	0.143231	4099.715332
7228.056910	0.087920	0.143231	4177.875977
7228.057846	0.087935	0.143231	4260.182617
7228.058747	0.087828	0.143231	4339.315918
7228.059642	0.087858	0.143231	4417.948730
7228.060530	0.088000	0.143231	4496.093262
7228.061484	0.087979	0.143231	4580.024902
7228.062394	0.087993	0.143231	4660.098633
7228.063293	0.087931	0.143231	4739.148437
7229.111260	1.010585	0.143843	453.752533
7229.112169	1.472952	0.143843	1792.665649
7229.113072	1.470073	0.143843	3120.141602
7229.114022	0.851470	0.143843	3929.037842
7229.114936	0.098159	0.143843	4018.755371
7229.115847	0.087689	0.143843	4098.640137
7229.116747	0.087891	0.143843	4177.741699
7229.117686	0.087935	0.143843	4260.312500
7229.118584	0.087898	0.143843	4339.244629
7229.119481	0.087938	0.143843	4418.125000
7229.120365	0.087898	0.143843	4495.826660
7229.121299	0.088044	0.143843	4578.060059
7229.122205	0.087920	0.143843	4657.715332
7229.123098	0.087975	0.143843	4736.276855
7230.122958	0.998339	0.143533	442.263977
7230.123854	1.471227	0.143533	1760.483154
7230.124828	1.468246	0.143533	3190.554687
7230.125748	0.811472	0.143533	3937.109131
7230.126645	0.098390	0.143533	4025.364746
7230.127537	0.087825	0.143533	4103.704590
7230.128477	0.087960	0.143533	4186.387207
7230.129369	0.087828	0.143533	4264.729980
7230.130260	0.087898	0.143533	4343.046875
7230.131201	0.087891	0.143533	4425.751953
7230.132115	0.087938	0.143533	4506.127441
7230.133015	0.087865	0.143533	4585.206055
7230.133900	0.087887	0.143533	4662.985840
7230.134840	0.087957	0.143533	4745.665039
7231.181780	1.011727	0.145575	449.206940
7231.182686	1.472725	0.145575	1783.495361
7231.183581	1.469601	0.145575	3098.788086
7231.184559	0.820649	0.145575	3901.383301
7231.185464	0.098386	0.145575	3990.422852
7231.186363	0.087788	0.145575	4069.344238
7231.187304	0.087935	0.145575	4152.090820
7231.188201	0.088041	0.145575	4231.063477
7231.189101	0.087927	0.145575	4310.198242
7231.189989	0.087854	0.145575	4388.212402
7231.190924	0.087993	0.145575	4470.485840
7231.191834	0.087968	0.145575	4550.536133
7231.192740	0.087905	0.145575	4630.178223
7231.193626	0.087806	0.145575	4707.974609
7232.194524	1.015448	0.143803	454.920685
7232.195449	1.473713	0.143803	1818.105591
7232.196346	1.469235	0.143803	3136.009277
7232.197316	0.807158	0.143803	3918.952637
7232.198214	0.097819	0.143803	4006.793701
7232.199113	0.087751	0.143803	4085.682373
7232.200004	0.087979	0.143803	4164.071289
7232.200937	0.088066	0.143803	4246.237305
7232.201845	0.087887	0.143803	4326.038574
7232.202742	0.087953	0.143803	4404.932129
7232.203660	0.087979	0.143803	4485.696289
7232.204583	0.088004	0.143803	4566.924316
7232.205485	0.087927	0.143803	4646.234863
7232.206375	0.087836	0.143803	4724.408691
7233.252304	0.995317	0.147747	439.930298
7233.253202	1.472047	0.147747	1761.828613
7233.254149	1.469454	0.147747	3153.401855
7233.255078	0.841575	0.147747	3935.224854
7233.255968	0.100269	0.147747	4024.463867
7233.256853	0.087726	0.147747	4102.101074
7233.257803	0.087887	0.147747	4185.593750
7233.258720	0.087953	0.147747	4266.246582
7233.259612	0.087894	0.147747	4344.648437
7233.260501	0.087869	0.147747	4422.763672
7233.261452	0.087839	0.147747	4506.298828
7233.262355	0.087828	0.147747	4585.607910
7233.263246	0.087883	0.147747	4663.912109
7233.264175	0.087902	0.147747	4745.572754
7234.264530	1.005498	0.145998	442.419128
7234.265432	1.471970	0.145998	1770.136230
7234.266323	1.470707	0.145998	3080.536133
7234.267297	0.845863	0.145998	3904.406738
7234.268202	0.099910	0.145998	3994.824951
7234.269097	0.087762	0.145998	4073.372314
7234.269980	0.087843	0.145998	4150.937500
7234.270914	0.087924	0.145998	4233.058105
7234.271820	0.087898	0.145998	4312.693848
7234.272715	0.087916	0.145998	4391.378906
7234.273642	0.087883	0.145998	4472.846680
7234.274548	0.088000	0.145998	4552.575195
7234.275448	0.087894	0.145998	4631.680176
7234.276336	0.087839	0.145998	4709.681641
7235.323390	1.016301	0.145374	495.955017
7235.324327	1.476833	0.145374	1879.748047
7235.325243	1.466971	0.145374	3223.493896
7235.326149	0.783831	0.145374	3933.644531
7235.327081	0.095735	0.145374	4022.869385
7235.327984	0.087946	0.145374	4102.284180
7235.328893	0.088011	0.145374	4182.286621
7235.329783	0.087920	0.145374	4260.535156
7235.330730	0.088125	0.145374	4343.989746
7235.331634	0.087953	0.145374	4423.499023
7235.332527	0.087942	0.145374	4502.031250
7235.333453	0.087997	0.145374	4583.516113
7235.334360	0.088096	0.145374	4663.418945
7235.335255	0.087891	0.145374	4742.081055
7236.337114	1.011427	0.143344	449.073608
7236.338031	1.473171	0.143344	1799.971680
7236.338943	1.469246	0.143344	3139.923584
7236.339857	0.855934	0.143344	3922.247070
7236.340808	0.098148	0.143344	4015.585937
7236.341710	0.087700	0.143344	4094.691406
7236.342606	0.087979	0.143344	4173.520020
7236.343542	0.087887	0.143344	4255.782227
7236.344442	0.087913	0.143344	4334.903320
7236.345347	0.087821	0.143344	4414.381348
7236.346234	0.087847	0.143344	4492.301270
7236.347186	0.087902	0.143344	4575.983398
7236.348093	0.087784	0.143344	4655.604004
7236.348984	0.087803	0.143344	4733.836426
7237.394399	1.012233	0.145624	456.516937
7237.395306	1.472739	0.145624	1792.291382
7237.396197	1.469736	0.145624	3101.826416
7237.397153	0.844446	0.145624	3909.116699
7237.398071	0.099203	0.145624	4000.185059
7237.398969	0.087832	0.145624	4079.058105
7237.399902	0.087935	0.145624	4161.101074
7237.400811	0.088004	0.145624	4241.096680
7237.401707	0.087887	0.145624	4319.843262
7237.402597	0.087953	0.145624	4398.121094
7237.403546	0.087924	0.145624	4481.560547
7237.404448	0.087938	0.145624	4560.880859
7237.405350	0.087792	0.145624	4640.068848
7237.406237	0.087810	0.145624	4717.956543
7238.407635	1.007834	0.145394	449.494171
7238.408540	1.472281	0.145394	1781.908813
7238.409433	1.470000	0.145394	3094.618896
7238.410389	0.859530	0.145394	3916.329590
7238.411295	0.100488	0.145394	4007.372070
7238.412195	0.087850	0.145394	4086.437500
7238.413131	0.087876	0.145394	4168.689453
7238.414038	0.087993	0.145394	4248.499023
7238.414951	0.087869	0.145394	4328.723145
7238.415844	0.087843	0.145394	4407.166992
7238.416777	0.087869	0.145394	4489.148437
7238.417679	0.088000	0.145394	4568.524902
7238.418575	0.087909	0.145394	4647.291504
7238.419463	0.087909	0.145394	4725.354492
7239.464921	1.006805	0.145362	448.028412
7239.465827	1.472802	0.145362	1782.386719
7239.466770	1.468865	0.145362	3167.526367
7239.467701	0.811637	0.145362	3923.160400
7239.468603	0.097874	0.145362	4011.442383
7239.469494	0.087737	0.145362	4089.615967
7239.470436	0.087953	0.145362	4172.467773
7239.471342	0.087916	0.145362	4252.120117
7239.472236	0.087740	0.145362	4330.560059
7239.473122	0.087792	0.145362	4408.343750
7239.474063	0.087883	0.145362	4491.041992
7239.474954	0.087913	0.145362	4569.372070
7239.475845	0.087876	0.145362	4647.669434
7239.476775	0.087869	0.145362	4729.387207
7240.479736	1.031536	0.145938	501.326324
7240.480652	1.475456	0.145938	1852.844482
7240.481558	1.468074	0.145938	3182.919434
7240.482457	0.842988	0.145938	3940.765869
7240.483423	0.095804	0.145938	4033.312988
7240.484322	0.087781	0.145938	4112.228027
7240.485217	0.087920	0.145938	4190.916504
7240.486117	0.087803	0.145938	4269.938965
7240.487053	0.088077	0.145938	4352.379395
7240.487965	0.087850	0.145938	4432.499023
7240.488857	0.087865	0.145938	4510.874512
7240.489787	0.087913	0.145938	4592.633301
7240.490690	0.087931	0.145938	4672.034668
7240.491584	0.087894	0.145938	4750.612305
7241.535450	1.013313	0.146812	458.017456
7241.536345	1.472333	0.146812	1775.755371
7241.537289	1.469110	0.146812	3162.595215
7241.538212	0.834642	0.146812	3932.970215
7241.539137	0.098207	0.146812	4023.811523
7241.540027	0.087751	0.146812	4101.910156
7241.540979	0.087869	0.146812	4185.561035
7241.541870	0.087891	0.146812	4263.871582
7241.542761	0.088030	0.146812	4342.306152
7241.543691	0.087938	0.146812	4424.088867
7241.544613	0.087839	0.146812	4505.076660
7241.545518	0.087795	0.146812	4584.531738
7241.546405	0.087880	0.146812	4662.480957
7241.547358	0.087770	0.146812	4746.125488
7242.551243	0.990396	0.145060	431.812469
7242.552137	1.471055	0.145060	1746.935425
7242.553103	1.469033	0.145060	3166.021484
7242.554021	0.832137	0.145060	3929.923828
7242.554923	0.099060	0.145060	4019.275879
7242.555811	0.087836	0.145060	4097.273926
7242.556758	0.087902	0.145060	4180.516602
7242.557666	0.087971	0.145060	4260.394531
7242.558567	0.087931	0.145060	4339.620117
7242.559498	0.087942	0.145060	4421.494141
7242.560400	0.088103	0.145060	4500.962891
7242.561302	0.087898	0.145060	4580.247070
7242.562191	0.087883	0.145060	4658.375488
7242.563128	0.088052	0.145060	4740.879883
7243.606488	1.011317	0.145451	449.024811
7243.607399	1.472611	0.145451	1790.573486
7243.608302	1.469667	0.145451	3117.682617
7243.609240	0.865928	0.145451	3929.922852
7243.610152	0.099305	0.145451	4020.489502
7243.611060	0.087711	0.145451	4100.131348
7243.611958	0.087869	0.145451	4179.037598
7243.612901	0.087839	0.145451	4261.870117
7243.613808	0.087861	0.145451	4341.560547
7243.614703	0.087817	0.145451	4420.157227
7243.615586	0.087795	0.145451	4497.680664
7243.616517	0.087949	0.145451	4579.561523
7243.617426	0.087828	0.145451	4659.397461
7243.618317	0.087916	0.145451	4737.730957
7244.622807	1.011629	0.145032	461.302612
7244.623758	1.475881	0.145032	1864.865723
7244.624672	1.467502	0.145032	3206.163086
7244.625575	0.818987	0.145032	3945.708252
7244.626514	0.097555	0.145032	4037.312256
7244.627427	0.087792	0.145032	4117.466309
7244.628330	0.087957	0.145032	4196.891113
7244.629218	0.087861	0.145032	4274.912109
7244.630167	0.087979	0.145032	4358.403809
7244.631063	0.087832	0.145032	4437.101074
7244.631948	0.087788	0.145032	4514.793457
7244.632873	0.087942	0.145032	4596.139648
7244.633784	0.087825	0.145032	4676.147949
7244.634689	0.087770	0.145032	4755.579590
7245.678544	0.995182	0.146663	441.860779
7245.679501	1.475006	0.146663	1853.441650
7245.680420	1.467971	0.146663	3202.507324
7245.681323	0.819624	0.146663	3942.627930
7245.682214	0.099163	0.146663	4030.981689
7245.683174	0.087946	0.146663	4115.409180
7245.684075	0.087861	0.146663	4194.572266
7245.684972	0.087817	0.146663	4273.344238
7245.685903	0.087935	0.146663	4355.211426
7245.686807	0.088044	0.146663	4434.803711
7245.687702	0.087924	0.146663	4513.495117
7245.688589	0.087927	0.146663	4591.486816
7245.689529	0.088044	0.146663	4674.248535
7245.690421	0.087971	0.146663	4752.718750
7246.692809	0.996947	0.145185	439.653625
7246.693780	1.472424	0.145185	1869.377686
7246.694678	1.467891	0.145185	3187.543457
7246.695610	0.797457	0.145185	3930.773682
7246.696507	0.097621	0.145185	4018.339600
7246.697447	0.087784	0.145185	4100.856934
7246.698368	0.087909	0.145185	4181.821289
7246.699285	0.088000	0.145185	4262.517578
7246.700181	0.087850	0.145185	4341.231445
7246.701135	0.087872	0.145185	4425.061523
7246.702058	0.087949	0.145185	4506.238770
7246.702946	0.087869	0.145185	4584.266113
7246.703895	0.087858	0.145185	4667.643066
7246.704797	0.087971	0.145185	4746.993164
7247.749129	1.057577	0.147066	531.961182
7247.750034	1.476185	0.147066	1867.908936
7247.750944	1.467795	0.147066	3203.602783
7247.751844	0.817848	0.147066	3939.666016
7247.752803	0.095175	0.147066	4030.938477
7247.753714	0.087744	0.147066	4110.873535
7247.754609	0.087843	0.147066	4189.493164
7247.755537	0.087883	0.147066	4271.048828
7247.756438	0.087935	0.147066	4350.277832
7247.757342	0.087898	0.147066	4429.737793
7247.758235	0.087861	0.147066	4508.197754
7247.759175	0.087990	0.147066	4590.907715
7247.760075	0.087891	0.147066	4670.009277
7247.760978	0.087916	0.147066	4749.397461
7248.763879	1.034777	0.145966	478.066772
7248.764778	1.473516	0.145966	1802.757324
7248.765731	1.468096	0.145966	3201.852539
7248.766656	0.797725	0.145966	3939.747803
7248.767552	0.097892	0.145966	4027.458984
7248.768438	0.087792	0.145966	4105.242676
7248.769372	0.087979	0.145966	4187.414551
7248.770282	0.087784	0.145966	4267.298340
7248.771180	0.087751	0.145966	4346.099121
7248.772115	0.087924	0.145966	4428.307617
7248.773026	0.087993	0.145966	4508.469238
7248.773924	0.087799	0.145966	4587.312988
7248.774815	0.087880	0.145966	4665.613770
7248.775760	0.087979	0.145966	4748.753418
7249.819650	1.030609	0.147005	510.151520
7249.820565	1.476174	0.147005	1860.850952
7249.821492	1.467367	0.147005	3221.100098
7249.822390	0.805466	0.147005	3944.408691
7249.823335	0.095204	0.147005	4034.376221
7249.824238	0.087744	0.147005	4113.609375
7249.825157	0.087854	0.147005	4194.347168
7249.826044	0.087949	0.147005	4272.357910
7249.826984	0.087931	0.147005	4355.013184
7249.827882	0.087898	0.147005	4433.945312
7249.828774	0.087924	0.147005	4512.373047
7249.829694	0.087946	0.147005	4593.283203
7249.830604	0.087920	0.147005	4673.290527
7249.831520	0.087858	0.147005	4753.768066
7250.834887	0.999503	0.146925	435.783356
7250.835873	1.476475	0.146925	1891.587158
7250.836786	1.467275	0.146925	3231.209473
7250.837696	0.788419	0.146925	3948.670898
7250.838633	0.097064	0.146925	4039.620117
7250.839535	0.087814	0.146925	4118.828125
7250.840432	0.087920	0.146925	4197.692383
7250.841318	0.087880	0.146925	4275.553711
7250.842270	0.087927	0.146925	4359.260254
7250.843165	0.087858	0.146925	4437.893066
7250.844065	0.087869	0.146925	4516.974609
7250.844955	0.087924	0.146925	4595.226562
7250.845908	0.087920	0.146925	4679.014160
7250.846819	0.087869	0.146925	4759.062500
7251.891683	1.008995	0.146264	468.173828
7251.892630	1.476280	0.146264	1866.211426
7251.893550	1.467125	0.146264	3215.966553
7251.894455	0.800248	0.146264	3940.190918
7251.895389	0.096405	0.146264	4030.233154
7251.896297	0.087839	0.146264	4109.991211
7251.897200	0.087821	0.146264	4189.293457
7251.898087	0.087803	0.146264	4267.174316
7251.899040	0.087949	0.146264	4350.989746
7251.899951	0.087887	0.146264	4431.054687
7251.900840	0.087869	0.146264	4509.169922
7251.901760	0.087964	0.146264	4590.096680
7251.902676	0.087861	0.146264	4670.577637
7251.903584	0.087751	0.146264	4750.255859
7252.906969	0.998049	0.144585	446.128052
7252.907867	1.472238	0.144585	1768.197388
7252.908762	1.470000	0.144585	3083.847412
7252.909753	0.820789	0.144585	3897.249023
7252.910653	0.098134	0.144585	3985.569336
7252.911540	0.087898	0.144585	4063.534912
7252.912461	0.087876	0.144585	4144.468750
7252.913378	0.087898	0.144585	4225.071289
7252.914271	0.087806	0.144585	4303.482422
7252.915156	0.087876	0.144585	4381.252441
7252.916087	0.087836	0.144585	4463.027344
7252.916993	0.087821	0.144585	4542.593262
7252.917905	0.087946	0.144585	4622.799805
7252.918802	0.087916	0.144585	4701.660645
7253.962195	1.004158	0.147473	442.833527
7253.963123	1.473395	0.147473	1810.143799
7253.964033	1.469132	0.147473	3147.053955
7253.964986	0.825117	0.147473	3933.390625
7253.965886	0.098610	0.147473	4022.139160
7253.966782	0.087784	0.147473	4100.793945
7253.967674	0.087949	0.147473	4179.244629
7253.968608	0.087872	0.147473	4261.317383
7253.969506	0.087817	0.147473	4340.177246
7253.970408	0.087909	0.147473	4419.471191
7253.971297	0.087715	0.147473	4497.449707
7253.972246	0.087993	0.147473	4580.955078
7253.973148	0.087847	0.147473	4660.192871
7253.974046	0.087858	0.147473	4739.088867
7254.975965	1.012775	0.146752	459.799713
7254.976868	1.473069	0.146752	1789.980835
7254.977763	1.469542	0.146752	3105.221191
7254.978720	0.842637	0.146752	3911.624512
7254.979629	0.099536	0.146752	4002.102783
7254.980530	0.087770	0.146752	4081.183350
7254.981463	0.087931	0.146752	4163.222656
7254.982376	0.088041	0.146752	4243.604004
7254.983284	0.087759	0.146752	4323.289062
7254.984183	0.087766	0.146752	4402.190918
7254.985120	0.087949	0.146752	4484.599121
7254.986016	0.087898	0.146752	4563.355469
7254.986909	0.087814	0.146752	4641.772949
7254.987801	0.087883	0.146752	4720.165039
7256.033244	1.023311	0.147271	465.606293
7256.034145	1.473160	0.147271	1792.923828
7256.035101	1.468158	0.147271	3196.482910
7256.036031	0.797842	0.147271	3938.475830
7256.036933	0.097108	0.147271	4026.067383
7256.037819	0.087795	0.147271	4103.854004
7256.038763	0.087971	0.147271	4186.898926
7256.039677	0.087839	0.147271	4267.184082
7256.040567	0.087975	0.147271	4345.481934
7256.041505	0.087931	0.147271	4427.960937
7256.042412	0.088022	0.147271	4507.797363
7256.043311	0.087909	0.147271	4586.827637
7256.044202	0.087883	0.147271	4665.131836
7256.045136	0.087986	0.147271	4747.310547
7257.048571	1.054552	0.146095	503.021332
7257.049497	1.475698	0.146095	1869.517944
7257.050402	1.468092	0.146095	3198.141113
7257.051348	0.784230	0.146095	3940.022461
7257.052250	0.096072	0.146095	4026.679199
7257.053153	0.087894	0.146095	4106.047852
7257.054045	0.087927	0.146095	4184.479004
7257.054995	0.088030	0.146095	4268.107422
7257.055896	0.088022	0.146095	4347.415527
7257.056792	0.088033	0.146095	4426.293457
7257.057679	0.088033	0.146095	4504.378906
7257.058628	0.088077	0.146095	4587.964355
7257.059538	0.087909	0.146095	4667.961426
7257.060436	0.087942	0.146095	4746.933105
7258.105325	1.025193	0.146832	476.714691
7258.106241	1.473556	0.146832	1826.491943
7258.107147	1.468264	0.146832	3156.739258
7258.108053	0.837155	0.146832	3915.201172
7258.109009	0.096698	0.146832	4007.644531
7258.109915	0.087605	0.146832	4087.014648
7258.110809	0.087993	0.146832	4165.680664
7258.111727	0.087997	0.146832	4246.461914
7258.112636	0.087828	0.146832	4326.297852
7258.113531	0.087858	0.146832	4404.930664
7258.114417	0.087905	0.146832	4482.814941
7258.115367	0.088052	0.146832	4566.463867
7258.116267	0.087781	0.146832	4645.466797
7258.117167	0.087938	0.146832	4724.611328
7259.118072	1.045173	0.148516	497.502472
7259.118991	1.475336	0.148516	1853.335937
7259.119901	1.468319	0.148516	3189.506348
7259.120802	0.832639	0.148516	3939.714355
7259.121754	0.096837	0.148516	4031.903320
7259.122658	0.087777	0.148516	4111.253906
7259.123550	0.087986	0.148516	4189.737305
7259.124484	0.088030	0.148516	4271.957031
7259.125397	0.088011	0.148516	4352.311523
7259.126301	0.088033	0.148516	4431.893555
7259.127198	0.088008	0.148516	4510.836426
7259.128129	0.088081	0.148516	4592.839844
7259.129036	0.087975	0.148516	4672.632812
7259.129941	0.087894	0.148516	4752.177246
7260.177370	1.009948	0.145696	453.466431
7260.178261	1.471820	0.145696	1764.858154
7260.179220	1.468612	0.145696	3173.257080
7260.180126	0.847321	0.145696	3940.929443
7260.181043	0.098804	0.145696	4031.532471
7260.181939	0.087858	0.145696	4110.252930
7260.182875	0.087913	0.145696	4192.539062
7260.183800	0.088008	0.145696	4273.946289
7260.184696	0.087938	0.145696	4352.738770
7260.185626	0.087817	0.145696	4434.408691
7260.186546	0.087587	0.145696	4514.988281
7260.187464	0.087828	0.145696	4595.614746
7260.188350	0.087946	0.145696	4673.534668
7260.189294	0.087865	0.145696	4756.479004
7261.189076	1.014624	0.148863	458.610046
7261.189993	1.473816	0.148863	1810.099365
7261.190951	1.468070	0.148863	3216.510742
7261.191881	0.778136	0.148863	3940.177246
7261.192775	0.096888	0.148863	4026.795410
7261.193665	0.087909	0.148863	4105.034180
7261.194609	0.087982	0.148863	4188.089355
7261.195510	0.087953	0.148863	4267.334961
7261.196408	0.087953	0.148863	4346.316406
7261.197292	0.087913	0.148863	4424.031250
7261.198230	0.088000	0.148863	4506.575684
7261.199139	0.087964	0.148863	4586.534668
7261.200035	0.087828	0.148863	4665.229004
7261.200960	0.087971	0.148863	4746.602539
7262.247904	1.011108	0.147908	454.998779
7262.248815	1.472802	0.147908	1796.720947
7262.249715	1.469670	0.147908	3119.424316
7262.250633	0.877017	0.147908	3924.525635
7262.251565	0.099393	0.147908	4017.160156
7262.252476	0.087708	0.147908	4097.061523
7262.253370	0.087909	0.147908	4175.652344
7262.254312	0.087957	0.147908	4258.507324
7262.255209	0.087935	0.147908	4337.384766
7262.256106	0.087854	0.147908	4416.189941
7262.256992	0.087964	0.147908	4494.125977
7262.257947	0.087971	0.147908	4578.138672
7262.258843	0.087865	0.147908	4656.865723
7262.259738	0.087891	0.147908	4735.527832
7263.259593	0.990505	0.148093	432.850830
7263.260489	1.470776	0.148093	1750.666382
7263.261454	1.468590	0.148093	3167.855713
7263.262373	0.833536	0.148093	3933.875732
7263.263269	0.099620	0.148093	4023.135498
7263.264155	0.087715	0.148093	4100.851074
7263.265095	0.087993	0.148093	4183.564453
7263.265987	0.087828	0.148093	4261.907227
7263.266879	0.087814	0.148093	4340.237305
7263.267815	0.087898	0.148093	4422.509766
7263.268729	0.087861	0.148093	4502.814941
7263.269627	0.087744	0.148093	4581.609375
7263.270514	0.087979	0.148093	4659.646484
7263.271460	0.087964	0.148093	4742.860352
7264.319954	0.993717	0.147634	439.222931
7264.320912	1.475230	0.147634	1852.492798
7264.321821	1.468151	0.147634	3187.041748
7264.322734	0.830808	0.147634	3945.569580
7264.323621	0.100020	0.147634	4034.286865
7264.324570	0.087865	0.147634	4117.670898
7264.325472	0.087920	0.147634	4196.974609
7264.326369	0.087913	0.147634	4275.832031
7264.327298	0.087949	0.147634	4357.536621
7264.328203	0.087938	0.147634	4437.120605
7264.329108	0.087891	0.147634	4516.661621
7264.329994	0.087880	0.147634	4594.522949
7264.330943	0.087975	0.147634	4678.011230
7264.331848	0.087924	0.147634	4757.582031
7265.330697	1.064839	0.147259	533.484192
7265.331615	1.476533	0.147259	1888.941650
7265.332530	1.467272	0.147259	3231.495117
7265.333434	0.789851	0.147259	3945.520508
7265.334391	0.094365	0.147259	4035.828125
7265.335292	0.087810	0.147259	4114.944824
7265.336192	0.087931	0.147259	4194.082520
7265.337123	0.088030	0.147259	4276.038086
7265.338024	0.087975	0.147259	4355.303223
7265.338930	0.087832	0.147259	4434.878906
7265.339819	0.087916	0.147259	4513.036621
7265.340757	0.087957	0.147259	4595.540039
7265.341659	0.087960	0.147259	4674.880371
7265.342561	0.087938	0.147259	4754.200684
7266.391504	1.002308	0.147171	446.027222
7266.392404	1.471992	0.147171	1770.820190
7266.393295	1.470403	0.147171	3080.949219
7266.394256	0.863335	0.147171	3910.614258
7266.395164	0.100660	0.147171	4002.013916
7266.396060	0.087817	0.147171	4080.698242
7266.396997	0.087920	0.147171	4163.079102
7266.397908	0.088088	0.147171	4243.327637
7266.398817	0.087872	0.147171	4323.203613
7266.399710	0.087909	0.147171	4401.706055
7266.400642	0.088070	0.147171	4483.787598
7266.401544	0.088052	0.147171	4563.210449
7266.402439	0.087942	0.147171	4641.918457
7266.403326	0.087946	0.147171	4719.926270
7267.401172	1.010658	0.149233	451.764130
7267.402080	1.472666	0.149233	1788.944946
7267.402977	1.470084	0.149233	3107.610352
7267.403945	0.831299	0.149233	3912.307617
7267.404842	0.099510	0.149233	4001.568604
7267.405741	0.087773	0.149233	4080.476807
7267.406625	0.087938	0.149233	4158.214355
7267.407565	0.087858	0.149233	4240.800781
7267.408477	0.087850	0.149233	4320.920410
7267.409373	0.087869	0.149233	4399.650879
7267.410306	0.087990	0.149233	4481.745117
7267.411211	0.088037	0.149233	4561.418945
7267.412114	0.087971	0.149233	4640.856934
7267.413001	0.087861	0.149233	4718.790039
7268.463048	0.995911	0.146502	436.208832
7268.464006	1.475456	0.146502	1849.696167
7268.464918	1.468151	0.146502	3188.649414
7268.465827	0.833163	0.146502	3945.994385
7268.466768	0.099181	0.146502	4039.323730
7268.467675	0.087931	0.146502	4119.077148
7268.468587	0.087792	0.146502	4199.143066
7268.469474	0.087806	0.146502	4277.027344
7268.470414	0.088030	0.146502	4359.775391
7268.471315	0.087832	0.146502	4438.912109
7268.472208	0.087894	0.146502	4517.401855
7268.473100	0.087960	0.146502	4595.862305
7268.474037	0.088019	0.146502	4678.335937
7268.474939	0.088008	0.146502	4757.718750
7269.472234	1.027965	0.147956	482.115631
7269.473137	1.474109	0.147956	1813.235962
7269.474081	1.468286	0.147956	3199.297852
7269.475009	0.795377	0.147956	3937.407959
7269.475911	0.097013	0.147956	4024.913574
7269.476798	0.087872	0.147956	4102.856445
7269.477754	0.087847	0.147956	4186.837891
7269.478656	0.087821	0.147956	4266.052246
7269.479545	0.087887	0.147956	4344.183594
7269.480499	0.087993	0.147956	4428.128906
7269.481397	0.087938	0.147956	4507.097656
7269.482302	0.087762	0.147956	4586.522461
7269.483194	0.087865	0.147956	4664.897949
7269.484127	0.087913	0.147956	4746.920410
7270.533066	1.006864	0.147743	442.013275
7270.534040	1.475764	0.147743	1879.407593
7270.534959	1.467492	0.147743	3228.032227
7270.535861	0.807814	0.147743	3956.680176
7270.536780	0.097485	0.147743	4046.269287
7270.537685	0.087861	0.147743	4125.783691
7270.538584	0.087938	0.147743	4204.840332
7270.539478	0.087927	0.147743	4283.447266
7270.540431	0.087913	0.147743	4367.228027
7270.541338	0.087957	0.147743	4447.004395
7270.542239	0.087836	0.147743	4526.144531
7270.543161	0.087938	0.147743	4607.223633
7270.544075	0.087975	0.147743	4687.632812
7270.544979	0.087821	0.147743	4767.022949
7271.543309	1.045671	0.148955	530.155396
7271.544225	1.476112	0.148955	1882.274048
7271.545128	1.467861	0.148955	3207.752930
7271.546022	0.823447	0.148955	3943.914795
7271.546957	0.096218	0.148955	4033.878906
7271.547861	0.087836	0.148955	4113.282227
7271.548768	0.087861	0.148955	4192.972656
7271.549674	0.087799	0.148955	4272.518555
7271.550614	0.088011	0.148955	4355.249512
7271.551519	0.087773	0.148955	4434.684570
7271.552412	0.087854	0.148955	4513.138184
7271.553354	0.087971	0.148955	4596.006836
7271.554257	0.087927	0.148955	4675.405273
7271.555152	0.087902	0.148955	4754.077148
7272.604173	1.068278	0.147469	537.343628
7272.605091	1.476416	0.147469	1892.693481
7272.606023	1.466583	0.147469	3259.549072
7272.606920	0.772852	0.147469	3952.796875
7272.607883	0.094120	0.147469	4043.434326
7272.608783	0.087839	0.147469	4122.489746
7272.609670	0.087924	0.147469	4200.478027
7272.610611	0.087997	0.147469	4283.283203
7272.611520	0.087938	0.147469	4363.219238
7272.612418	0.087854	0.147469	4442.112305
7272.613305	0.087876	0.147469	4520.058105
7272.614239	0.087872	0.147469	4602.130859
7272.615151	0.087832	0.147469	4682.233887
7272.616069	0.087839	0.147469	4762.870605
7273.614303	1.019865	0.149962	458.939056
7273.615215	1.473398	0.149962	1802.678467
7273.616129	1.468909	0.149962	3145.260986
7273.617083	0.816812	0.149962	3924.499268
7273.617989	0.098463	0.149962	4013.706787
7273.618879	0.087825	0.149962	4091.870850
7273.619804	0.087913	0.149962	4173.189941
7273.620719	0.088019	0.149962	4253.727051
7273.621622	0.087891	0.149962	4333.092285
7273.622510	0.087913	0.149962	4411.158691
7273.623467	0.087913	0.149962	4495.291016
7273.624370	0.087935	0.149962	4574.695801
7273.625273	0.087817	0.149962	4653.995117
7273.626182	0.087861	0.149962	4733.860840
7274.675138	0.988770	0.147171	428.137207
7274.676068	1.471066	0.147171	1796.228394
7274.677014	1.468407	0.147171	3185.341309
7274.677941	0.810066	0.147171	3936.272461
7274.678840	0.098185	0.147171	4024.540527
7274.679795	0.087927	0.147171	4108.511230
7274.680695	0.087876	0.147171	4187.599609
7274.681593	0.087832	0.147171	4266.472656
7274.682475	0.087938	0.147171	4344.034180
7274.683416	0.087920	0.147171	4426.766602
7274.684326	0.087927	0.147171	4506.780273
7274.685226	0.087913	0.147171	4585.901367
7274.686148	0.087990	0.147171	4667.027832
7274.687060	0.088008	0.147171	4747.291016
7275.685331	1.004561	0.150462	448.034027
7275.686234	1.472688	0.150462	1777.871338
7275.687179	1.468920	0.150462	3166.000488
7275.688096	0.843179	0.150462	3939.195312
7275.689017	0.098650	0.150462	4030.051758
7275.689908	0.087876	0.150462	4108.349121
7275.690862	0.087843	0.150462	4192.151367
7275.691751	0.087931	0.150462	4270.321777
7275.692637	0.087957	0.150462	4348.251465
7275.693557	0.088041	0.150462	4429.249023
7275.694475	0.087931	0.150462	4509.969727
7275.695373	0.087957	0.150462	4588.954590
7275.696259	0.087924	0.150462	4666.854980
7275.697197	0.087913	0.150462	4749.316895
7276.747729	1.008735	0.147239	450.904694
7276.748629	1.472333	0.147239	1776.004272
7276.749580	1.468605	0.147239	3172.647461
7276.750500	0.829658	0.147239	3935.933105
7276.751397	0.099294	0.147239	4025.000244
7276.752282	0.087788	0.147239	4102.692871
7276.753209	0.088059	0.147239	4184.323730
7276.754111	0.088019	0.147239	4263.716797
7276.755006	0.087902	0.147239	4342.388672
7276.755930	0.087986	0.147239	4423.687500
7276.756840	0.088081	0.147239	4503.841309
7276.757750	0.087924	0.147239	4583.851562
7276.758649	0.088004	0.147239	4662.967285
7276.759592	0.088011	0.147239	4745.961914
7277.756381	1.016550	0.149862	453.381439
7277.757297	1.473190	0.149862	1802.823242
7277.758203	1.469352	0.149862	3134.055908
7277.759150	0.849965	0.149862	3938.972412
7277.760059	0.098405	0.149862	4028.422119
7277.760966	0.087748	0.149862	4108.009277
7277.761859	0.087894	0.149862	4186.499023
7277.762794	0.088063	0.149862	4268.837891
7277.763693	0.087993	0.149862	4347.943848
7277.764594	0.087909	0.149862	4427.149902
7277.765479	0.087883	0.149862	4504.926758
7277.766420	0.088085	0.149862	4587.814453
7277.767330	0.088077	0.149862	4667.964844
7277.768229	0.087865	0.149862	4746.955566
7278.817748	0.999423	0.148387	445.742493
7278.818647	1.472256	0.148387	1769.300537
7278.819591	1.469257	0.148387	3156.278809
7278.820520	0.838561	0.148387	3935.301758
7278.821416	0.099547	0.148387	4024.496094
7278.822304	0.087682	0.148387	4102.357422
7278.823249	0.088077	0.148387	4185.590332
7278.824156	0.087821	0.148387	4265.244141
7278.825052	0.087803	0.148387	4343.915527
7278.825938	0.087960	0.148387	4421.848145
7278.826889	0.088011	0.148387	4505.546875
7278.827797	0.087927	0.148387	4585.384766
7278.828691	0.088008	0.148387	4664.063965
7278.829629	0.087975	0.148387	4746.584473
7279.827428	1.024435	0.149306	470.215576
7279.828327	1.473102	0.149306	1794.534180
7279.829289	1.467982	0.149306	3206.732910
7279.830199	0.806082	0.149306	3940.267090
7279.831103	0.097628	0.149306	4028.522949
7279.831990	0.087755	0.149306	4106.361816
7279.832944	0.087920	0.149306	4190.237305
7279.833853	0.087905	0.149306	4270.143066
7279.834747	0.087916	0.149306	4348.740234
7279.835680	0.087902	0.149306	4430.752441
7279.836587	0.087990	0.149306	4510.559082
7279.837482	0.087861	0.149306	4589.194824
7279.838367	0.087891	0.149306	4666.978027
7279.839303	0.087946	0.149306	4749.294922
7280.888826	1.017828	0.148202	492.628906
7280.889756	1.476412	0.148202	1865.692505
7280.890671	1.467195	0.148202	3208.175781
7280.891576	0.804042	0.148202	3935.833496
7280.892514	0.096134	0.148202	4026.007324
7280.893421	0.087909	0.148202	4105.740723
7280.894321	0.087920	0.148202	4184.868652
7280.895206	0.087839	0.148202	4262.606445
7280.896149	0.088037	0.148202	4345.625488
7280.897055	0.087960	0.148202	4425.317383
7280.897948	0.087942	0.148202	4503.849609
7280.898876	0.087872	0.148202	4585.395020
7280.899781	0.088011	0.148202	4665.045410
7280.900694	0.088019	0.148202	4745.406738
7281.898440	0.997896	0.150591	436.080353
7281.899423	1.476552	0.150591	1887.530518
7281.900335	1.467411	0.150591	3225.809326
7281.901233	0.812014	0.150591	3954.998047
7281.902195	0.098031	0.150591	4049.303955
7281.903094	0.087898	0.150591	4128.324219
7281.903995	0.087847	0.150591	4207.474121
7281.904890	0.087817	0.150591	4286.070801
7281.905835	0.087880	0.150591	4369.117187
7281.906735	0.087942	0.150591	4448.264648
7281.907638	0.087913	0.150591	4527.649902
7281.908525	0.087957	0.150591	4605.667480
7281.909486	0.088019	0.150591	4690.253418
7281.910392	0.087792	0.150591	4769.792969
7282.960849	0.998599	0.146333	440.381989
7282.961740	1.471263	0.146333	1751.277710
7282.962701	1.468942	0.146333	3162.930664
7282.963625	0.841040	0.146333	3940.051758
7282.964512	0.099994	0.146333	4028.746338
7282.965455	0.087894	0.146333	4111.630859
7282.966363	0.087887	0.146333	4191.432129
7282.967269	0.087894	0.146333	4271.064453
7282.968160	0.087858	0.146333	4349.345703
7282.969111	0.087982	0.146333	4433.016602
7282.970012	0.087931	0.146333	4512.242187
7282.970912	0.087898	0.146333	4591.350586
7282.971797	0.087971	0.146333	4669.205078
7282.972740	0.088052	0.146333	4752.237793
7283.969535	1.032480	0.150192	509.012878
7283.970447	1.475651	0.150192	1854.806396
7283.971346	1.468337	0.150192	3174.841797
7283.972279	0.819668	0.150192	3939.592041
7283.973199	0.096625	0.150192	4028.486816
7283.974099	0.087759	0.150192	4107.469727
7283.974987	0.087938	0.150192	4185.559082
7283.975931	0.088000	0.150192	4268.631348
7283.976844	0.088041	0.150192	4349.012695
7283.977735	0.088011	0.150192	4427.431152
7283.978626	0.088052	0.150192	4505.885254
7283.979559	0.087997	0.150192	4587.986328
7283.980457	0.088037	0.150192	4667.043457
7283.981347	0.088011	0.150192	4745.373535
7285.030859	0.996035	0.147026	433.275269
7285.031804	1.470908	0.147026	1823.283447
7285.032719	1.468568	0.147026	3167.023193
7285.033639	0.836217	0.147026	3936.342773
7285.034531	0.100258	0.147026	4025.772461
7285.035469	0.087880	0.147026	4108.203613
7285.036378	0.087975	0.147026	4188.172852
7285.037276	0.088022	0.147026	4267.216797
7285.038166	0.088004	0.147026	4345.540527
7285.039101	0.088132	0.147026	4427.944336
7285.040006	0.087942	0.147026	4507.531738
7285.040905	0.087968	0.147026	4586.614746
7285.041832	0.088008	0.147026	4668.197754
7285.042732	0.088011	0.147026	4747.408203
7286.041578	1.019399	0.147944	476.059509
7286.042515	1.475988	0.147944	1859.059814
7286.043429	1.467693	0.147944	3200.531250
7286.044335	0.819836	0.147944	3943.302979
7286.045270	0.097701	0.147944	4034.653809
7286.046180	0.087869	0.147944	4114.614258
7286.047085	0.087788	0.147944	4194.062500
7286.047973	0.087920	0.147944	4272.135254
7286.048921	0.087990	0.147944	4355.549316
7286.049831	0.087924	0.147944	4435.559570
7286.050724	0.087946	0.147944	4514.094727
7286.051639	0.087902	0.147944	4594.524902
7286.052554	0.087876	0.147944	4674.931641
7286.053464	0.087854	0.147944	4754.878906
7287.101944	1.055698	0.147517	507.790863
7287.102869	1.475764	0.147517	1872.872681
7287.103778	1.468004	0.147517	3207.288574
7287.104678	0.814658	0.147517	3940.480957
7287.105631	0.095574	0.147517	4031.562744
7287.106534	0.087755	0.147517	4110.805664
7287.107429	0.087806	0.147517	4189.392578
7287.108373	0.088030	0.147517	4272.492676
7287.109279	0.087979	0.147517	4352.201172
7287.110179	0.087894	0.147517	4431.306152
7287.111064	0.087902	0.147517	4509.099121
7287.111989	0.087913	0.147517	4590.418457
7287.112890	0.087861	0.147517	4669.581543
7287.113792	0.087839	0.147517	4748.812500
7288.112084	1.002733	0.149547	442.205292
7288.113004	1.473003	0.149547	1797.368164
7288.113911	1.469443	0.149547	3130.153320
7288.114854	0.849987	0.149547	3931.690674
7288.115760	0.099166	0.149547	4021.535400
7288.116654	0.087737	0.149547	4099.972168
7288.117539	0.087979	0.149547	4177.833008
7288.118492	0.087975	0.149547	4261.672852
7288.119385	0.087942	0.149547	4340.205078
7288.120283	0.087861	0.149547	4419.104492
7288.121170	0.087832	0.149547	4497.011719
7288.122119	0.087975	0.149547	4580.500000
7288.123027	0.087843	0.149547	4660.261230
7288.123921	0.087847	0.149547	4738.796387
7289.172966	1.016689	0.147408	465.643768
7289.173866	1.472919	0.147408	1791.270508
7289.174758	1.470106	0.147408	3102.605225
7289.175712	0.853817	0.147408	3917.146729
7289.176613	0.100031	0.147408	4007.274170
7289.177523	0.087740	0.147408	4087.117920
7289.178420	0.087887	0.147408	4165.952637
7289.179369	0.087894	0.147408	4249.364258
7289.180272	0.087836	0.147408	4328.679687
7289.181188	0.087836	0.147408	4409.137207
7289.182078	0.087898	0.147408	4487.366211
7289.183037	0.087891	0.147408	4571.653320
7289.183934	0.087806	0.147408	4650.415527
7289.184826	0.087891	0.147408	4728.813965
7290.183124	1.006278	0.150699	450.812622
7290.184014	1.471516	0.150699	1760.462036
7290.184962	1.468967	0.150699	3153.042969
7290.185893	0.830552	0.150699	3926.286621
7290.186794	0.098855	0.150699	4015.354980
7290.187681	0.087726	0.150699	4093.167725
7290.188634	0.087927	0.150699	4176.962402
7290.189541	0.087784	0.150699	4256.583008
7290.190437	0.087935	0.150699	4335.372559
7290.191372	0.087975	0.150699	4417.628906
7290.192271	0.088015	0.150699	4496.754395
7290.193167	0.087883	0.150699	4575.498047
7290.194051	0.087740	0.150699	4653.060547
7290.194995	0.087935	0.150699	4736.070801
7291.243478	0.996321	0.149499	442.366425
7291.244379	1.471996	0.149499	1768.634644
7291.245273	1.470480	0.149499	3083.243652
7291.246241	0.851404	0.149499	3907.402588
7291.247159	0.098654	0.149499	3997.966553
7291.248078	0.087806	0.149499	4078.660645
7291.248968	0.087847	0.149499	4156.844238
7291.249920	0.087880	0.149499	4240.505859
7291.250835	0.087836	0.149499	4320.875488
7291.251725	0.087803	0.149499	4399.020020
7291.252655	0.087762	0.149499	4480.639160
7291.253563	0.087799	0.149499	4560.360840
7291.254483	0.087832	0.149499	4641.166504
7291.255377	0.087894	0.149499	4719.744141
7292.254152	1.005205	0.149116	438.269409
7292.255129	1.475977	0.149116	1880.298584
7292.256047	1.467477	0.149116	3227.442383
7292.256946	0.812413	0.149116	3957.802002
7292.257894	0.097896	0.149116	4050.606934
7292.258789	0.087869	0.149116	4129.249512
7292.259694	0.087770	0.149116	4208.681152
7292.260588	0.087916	0.149116	4287.278320
7292.261525	0.087850	0.149116	4369.594238
7292.262432	0.088004	0.149116	4449.414062
7292.263341	0.087909	0.149116	4529.323242
7292.264230	0.087971	0.149116	4607.529785
7292.265176	0.088000	0.149116	4690.778320
7292.266086	0.087850	0.149116	4770.722168
7293.314584	1.070687	0.149265	553.545288
7293.315503	1.476995	0.149265	1910.903320
7293.316408	1.466818	0.149265	3238.373291
7293.317312	0.782219	0.149265	3945.499512
7293.318250	0.094874	0.149265	4034.491455
7293.319155	0.087755	0.149265	4113.909668
7293.320053	0.087916	0.149265	4192.858398
7293.320980	0.087935	0.149265	4274.373535
7293.321884	0.087946	0.149265	4353.876465
7293.322792	0.087891	0.149265	4433.681152
7293.323685	0.087854	0.149265	4512.134766
7293.324627	0.087905	0.149265	4594.941406
7293.325532	0.087828	0.149265	4674.426270
7293.326426	0.087993	0.149265	4753.092285
7294.326226	0.999558	0.150579	445.802917
7294.327127	1.472622	0.150579	1772.635254
7294.328072	1.469187	0.150579	3161.017090
7294.328990	0.843995	0.150579	3935.804932
7294.329888	0.100305	0.150579	4025.878906
7294.330776	0.087719	0.150579	4103.772949
7294.331726	0.087949	0.150579	4187.324707
7294.332629	0.087916	0.150579	4266.712891
7294.333525	0.087858	0.150579	4345.433594
7294.334415	0.087927	0.150579	4423.688965
7294.335366	0.088011	0.150579	4507.387695
7294.336273	0.087876	0.150579	4587.091309
7294.337168	0.087795	0.150579	4665.667969
7294.338094	0.087964	0.150579	4747.122559
7295.385038	1.003696	0.149539	441.626373
7295.385939	1.471750	0.149539	1767.673584
7295.386838	1.470297	0.149539	3089.470215
7295.387811	0.844607	0.149539	3911.272705
7295.388724	0.098701	0.149539	4001.386963
7295.389633	0.087781	0.149539	4081.179687
7295.390521	0.087975	0.149539	4159.301270
7295.391458	0.087953	0.149539	4241.712891
7295.392360	0.087828	0.149539	4320.934082
7295.393248	0.087968	0.149539	4399.049316
7295.394184	0.087960	0.149539	4481.379883
7295.395086	0.087997	0.149539	4560.752930
7295.395991	0.087887	0.149539	4640.290527
7295.396880	0.087836	0.149539	4718.376465
7296.397770	0.997727	0.149181	439.997620
7296.398748	1.475845	0.149181	1883.373779
7296.399646	1.467997	0.149181	3201.634766
7296.400546	0.833536	0.149181	3951.817383
7296.401476	0.099547	0.149181	4044.396240
7296.402403	0.087770	0.149181	4125.758789
7296.403305	0.087876	0.149181	4205.022949
7296.404194	0.087814	0.149181	4283.089355
7296.405129	0.087979	0.149181	4365.349121
7296.406043	0.087872	0.149181	4445.664551
7296.406961	0.087902	0.149181	4526.358398
7296.407850	0.087942	0.149181	4604.538574
7296.408804	0.087894	0.149181	4688.389648
7296.409699	0.087960	0.149181	4767.114258
7297.456086	1.002620	0.148810	447.168365
7297.456978	1.471263	0.148810	1759.535278
7297.457939	1.468645	0.148810	3170.903076
7297.458867	0.822052	0.148810	3933.767334
7297.459766	0.098478	0.148810	4022.298828
7297.460705	0.087784	0.148810	4104.728516
7297.461608	0.087909	0.148810	4184.110352
7297.462513	0.087858	0.148810	4263.621582
7297.463399	0.087821	0.148810	4341.431152
7297.464355	0.087839	0.148810	4425.405762
7297.465252	0.087795	0.148810	4504.158203
7297.466147	0.087817	0.148810	4582.754883
7297.467036	0.087847	0.148810	4660.850586
7297.467973	0.087876	0.148810	4743.190430
7298.469324	0.995592	0.149519	439.056061
7298.470217	1.471274	0.149519	1752.904175
7298.471166	1.468923	0.149519	3146.912598
7298.472096	0.846167	0.149519	3933.847900
7298.472985	0.100521	0.149519	4023.211182
7298.473920	0.087880	0.149519	4105.378418
7298.474824	0.087990	0.149519	4184.920898
7298.475724	0.087971	0.149519	4264.094727
7298.476611	0.087931	0.149519	4342.089355
7298.477564	0.088048	0.149519	4425.999023
7298.478468	0.087964	0.149519	4505.518555
7298.479367	0.087960	0.149519	4584.594727
7298.480252	0.088030	0.149519	4662.500977
7298.481196	0.087982	0.149519	4745.556152
