time (s)	coil I (A)	last det (V)	int current (uC)
4757.443537	1.014309	0.138896	450.353210
4757.444472	1.475746	0.138896	1830.175537
4757.445381	0.745258	0.138896	2507.614746
4757.446331	0.093505	0.138896	2596.444092
4757.447222	0.087740	0.138896	2674.620850
4757.448111	0.087751	0.138896	2752.631836
4757.449051	0.087975	0.138896	2835.328125
4757.449961	0.087869	0.138896	2915.288574
4757.450872	0.087891	0.138896	2995.356934
4757.451757	0.087836	0.138896	3073.091553
4757.452707	0.087909	0.138896	3156.604980
4757.453602	0.087920	0.138896	3235.293213
4757.454488	0.087946	0.138896	3313.212891
4758.457294	0.993823	0.146260	435.294586
4758.458251	1.477105	0.146260	1848.883545
4758.459179	0.691674	0.146260	2490.756592
4758.460086	0.093073	0.146260	2575.173340
4758.460982	0.087806	0.146260	2653.847900
4758.461928	0.088052	0.146260	2737.144775
4758.462830	0.087817	0.146260	2816.355957
4758.463723	0.087792	0.146260	2894.753906
4758.464665	0.087909	0.146260	2977.564209
4758.465568	0.087949	0.146260	3056.982422
4758.466461	0.087825	0.146260	3135.409912
4758.467347	0.087729	0.146260	3213.138184
4758.468288	0.088026	0.146260	3295.970703
4759.514616	1.042478	0.134212	503.516846
4759.515542	1.477577	0.134212	1871.753174
4759.516455	0.699386	0.134212	2510.292480
4759.517344	0.094039	0.134212	2593.893311
4759.518296	0.087766	0.134212	2677.446533
4759.519201	0.087689	0.134212	2756.805176
4759.520092	0.087872	0.134212	2835.099365
4759.521014	0.087920	0.134212	2916.161621
4759.521929	0.087938	0.134212	2996.625000
4759.522835	0.087806	0.134212	3076.177490
4759.523734	0.087806	0.134212	3155.115479
4759.524672	0.087931	0.134212	3237.594727
4759.525571	0.087836	0.134212	3316.559082
4760.528328	1.009373	0.139626	444.123932
4760.529298	1.477602	0.139626	1877.398315
4760.530215	0.684906	0.139626	2505.457031
4760.531108	0.093439	0.139626	2588.897705
4760.532046	0.087839	0.139626	2671.291016
4760.532964	0.087891	0.139626	2751.974609
4760.533882	0.087828	0.139626	2832.601074
4760.534768	0.087843	0.139626	2910.429932
4760.535726	0.087847	0.139626	2994.587158
4760.536622	0.087850	0.139626	3073.301025
4760.537512	0.087935	0.139626	3151.562744
4760.538439	0.087902	0.139626	3233.047607
4760.539353	0.087832	0.139626	3313.326172
4761.586128	0.996182	0.142099	440.312286
4761.587022	1.472776	0.142099	1756.973877
4761.588000	0.724742	0.142099	2465.771973
4761.588909	0.094274	0.142099	2551.466797
4761.589798	0.087781	0.142099	2629.503906
4761.590704	0.087909	0.142099	2709.149414
4761.591634	0.087964	0.142099	2790.955811
4761.592548	0.087850	0.142099	2871.250977
4761.593445	0.087990	0.142099	2950.177490
4761.594380	0.087924	0.142099	3032.385986
4761.595279	0.087949	0.142099	3111.452393
4761.596175	0.087828	0.142099	3190.146729
4761.597060	0.087847	0.142099	3267.891113
4762.597853	1.006615	0.146748	443.917175
4762.598763	1.474387	0.146748	1785.609619
4762.599677	0.778433	0.146748	2497.097168
4762.600578	0.096691	0.146748	2584.215576
4762.601511	0.087825	0.146748	2666.156006
4762.602421	0.087839	0.146748	2746.089844
4762.603310	0.087729	0.146748	2824.081299
4762.604248	0.087880	0.146748	2906.512451
4762.605148	0.087810	0.146748	2985.541504
4762.606052	0.087792	0.146748	3064.905273
4762.606946	0.087773	0.146748	3143.374756
4762.607884	0.087891	0.146748	3225.816162
4762.608791	0.087748	0.146748	3305.403320
4763.659218	0.995925	0.135311	440.199005
4763.660117	1.473867	0.135311	1765.205566
4763.661071	0.774144	0.135311	2503.739258
4763.661975	0.094878	0.135311	2589.508789
4763.662870	0.087784	0.135311	2668.075928
4763.663764	0.087931	0.135311	2746.686035
4763.664707	0.087905	0.135311	2829.580811
4763.665616	0.087861	0.135311	2909.446777
4763.666515	0.087887	0.135311	2988.457031
4763.667402	0.087850	0.135311	3066.380371
4763.668357	0.087942	0.135311	3150.364990
4763.669264	0.087847	0.135311	3230.041992
4763.670153	0.087880	0.135311	3308.166992
4764.667385	1.042035	0.145322	507.471039
4764.668311	1.477771	0.145322	1875.887085
4764.669222	0.693483	0.145322	2507.649902
4764.670109	0.094028	0.145322	2591.052979
4764.671071	0.087949	0.145322	2675.660156
4764.671979	0.087832	0.145322	2755.411621
4764.672866	0.087924	0.145322	2833.399902
4764.673788	0.087817	0.145322	2914.367432
4764.674699	0.087982	0.145322	2994.519287
4764.675603	0.087795	0.145322	3073.886230
4764.676497	0.087839	0.145322	3152.414551
4764.677430	0.088033	0.145322	3234.549805
4764.678335	0.087872	0.145322	3314.074219
4765.731278	0.999075	0.134997	434.597534
4765.732190	1.473966	0.134997	1778.854614
4765.733103	0.782582	0.134997	2493.351807
4765.734037	0.095350	0.134997	2582.408936
4765.734937	0.087971	0.134997	2661.583008
4765.735842	0.087799	0.134997	2741.041260
4765.736734	0.087799	0.134997	2819.357910
4765.737678	0.087913	0.134997	2902.347412
4765.738586	0.087784	0.134997	2982.055664
4765.739477	0.087828	0.134997	3060.310791
4765.740409	0.087982	0.134997	3142.310059
4765.741320	0.087843	0.134997	3222.334961
4765.742228	0.087909	0.134997	3302.156250
4766.735836	1.012430	0.144472	455.593689
4766.736741	1.474655	0.144472	1790.156006
4766.737642	0.779008	0.144472	2492.041748
4766.738586	0.094534	0.144472	2581.281494
4766.739491	0.087777	0.144472	2660.719727
4766.740380	0.087876	0.144472	2738.841553
4766.741315	0.087938	0.144472	2821.063721
4766.742216	0.087839	0.144472	2900.207031
4766.743131	0.087784	0.144472	2980.529785
4766.744025	0.087814	0.144472	3059.035156
4766.744980	0.087990	0.144472	3143.065186
4766.745887	0.087832	0.144472	3222.728760
4766.746803	0.087891	0.144472	3303.236572
4767.804380	1.010120	0.138610	450.513336
4767.805313	1.475065	0.138610	1826.748657
4767.806216	0.753893	0.138610	2507.513916
4767.807150	0.094490	0.138610	2595.767334
4767.808055	0.087817	0.138610	2675.241943
4767.808961	0.087810	0.138610	2754.797852
4767.809849	0.087814	0.138610	2832.776367
4767.810806	0.087916	0.138610	2916.912109
4767.811714	0.087759	0.138610	2996.597168
4767.812609	0.087843	0.138610	3075.216553
4767.813530	0.087909	0.138610	3156.180664
4767.814437	0.087920	0.138610	3235.924072
4767.815345	0.087810	0.138610	3315.655518
4768.803824	1.035696	0.147581	483.669922
4768.804742	1.476211	0.147581	1838.831543
4768.805655	0.731668	0.147581	2506.843994
4768.806542	0.095057	0.147581	2591.159912
4768.807488	0.087924	0.147581	2674.335693
4768.808389	0.087924	0.147581	2753.554932
4768.809282	0.087942	0.147581	2832.087158
4768.810206	0.088000	0.147581	2913.399658
4768.811113	0.088096	0.147581	2993.302490
4768.812015	0.087869	0.147581	3072.560059
4768.812904	0.087850	0.147581	3150.658936
4768.813850	0.088052	0.147581	3233.955811
4768.814751	0.087964	0.147581	3313.211182
4769.878488	1.017393	0.133748	461.896210
4769.879387	1.474449	0.133748	1787.426270
4769.880349	0.711035	0.133748	2471.442139
4769.881241	0.094285	0.133748	2555.543945
4769.882140	0.087740	0.133748	2634.422607
4769.883025	0.087839	0.133748	2712.160400
4769.883963	0.087817	0.133748	2794.533203
4769.884870	0.087817	0.133748	2874.183594
4769.885767	0.087869	0.133748	2953.001709
4769.886698	0.087821	0.133748	3034.763184
4769.887610	0.087869	0.133748	3114.899414
4769.888510	0.087766	0.133748	3193.888916
4769.889395	0.087843	0.133748	3271.629883
4770.873823	1.015800	0.145459	455.078247
4770.874750	1.475618	0.145459	1822.975830
4770.875661	0.747396	0.145459	2503.853760
4770.876599	0.095533	0.145459	2593.464111
4770.877505	0.087964	0.145459	2673.159424
4770.878398	0.087920	0.145459	2751.671875
4770.879286	0.088008	0.145459	2829.822754
4770.880217	0.087938	0.145459	2911.693359
4770.881121	0.087997	0.145459	2991.242432
4770.882024	0.087931	0.145459	3070.644043
4770.882914	0.087913	0.145459	3148.886230
4770.883860	0.087975	0.145459	3232.110352
4770.884766	0.087920	0.145459	3311.765869
4771.949000	0.993431	0.139916	433.136078
4771.949973	1.474614	0.139916	1867.935791
4771.950893	0.695427	0.139916	2507.728760
4771.951789	0.093593	0.139916	2591.587646
4771.952678	0.087777	0.139916	2669.621582
4771.953605	0.087993	0.139916	2751.191162
4771.954511	0.088022	0.139916	2830.939453
4771.955413	0.087968	0.139916	2910.286133
4771.956319	0.087894	0.139916	2989.918457
4771.957243	0.088030	0.139916	3071.258057
4771.958146	0.087854	0.139916	3150.590332
4771.959038	0.087876	0.139916	3228.975586
4771.959972	0.087931	0.139916	3311.103027
4772.944854	1.012749	0.150160	453.711578
4772.945759	1.474303	0.150160	1787.955811
4772.946723	0.712397	0.150160	2474.707031
4772.947627	0.093867	0.150160	2559.562988
4772.948526	0.087704	0.150160	2638.408691
4772.949414	0.087799	0.150160	2716.374268
4772.950345	0.087869	0.150160	2798.179932
4772.951252	0.087821	0.150160	2877.833496
4772.952147	0.087770	0.150160	2956.387451
4772.953086	0.087876	0.150160	3038.903076
4772.953985	0.087792	0.150160	3117.827881
4772.954883	0.087766	0.150160	3196.641846
4772.955777	0.087832	0.150160	3275.163574
4774.019010	0.987557	0.136975	426.624817
4774.019937	1.472208	0.136975	1791.361816
4774.020887	0.718455	0.136975	2473.893555
4774.021784	0.094343	0.136975	2558.519531
4774.022672	0.087770	0.136975	2636.458984
4774.023619	0.087902	0.136975	2719.701904
4774.024517	0.087817	0.136975	2798.562012
4774.025425	0.087825	0.136975	2878.306885
4774.026313	0.087960	0.136975	2956.415527
4774.027270	0.087854	0.136975	3040.491699
4774.028174	0.087803	0.136975	3119.865479
4774.029069	0.087825	0.136975	3198.468506
4774.029993	0.087898	0.136975	3279.686279
4775.018954	0.992915	0.145797	434.896759
4775.019929	1.477302	0.145797	1875.266357
4775.020846	0.690088	0.145797	2508.076904
4775.021740	0.093497	0.145797	2591.663574
4775.022635	0.087828	0.145797	2670.270020
4775.023587	0.087902	0.145797	2753.952393
4775.024491	0.087803	0.145797	2833.326172
4775.025382	0.087839	0.145797	2911.591064
4775.026313	0.087883	0.145797	2993.410400
4775.027217	0.087894	0.145797	3072.866943
4775.028115	0.087865	0.145797	3151.769775
4775.029004	0.087836	0.145797	3229.855713
4775.029949	0.087960	0.145797	3312.978027
4776.087038	1.040845	0.138341	512.095581
4776.087954	1.477452	0.138341	1865.442017
4776.088890	0.670243	0.138341	2492.789307
4776.089776	0.093362	0.138341	2575.507812
4776.090740	0.087697	0.138341	2660.047363
4776.091634	0.087733	0.138341	2738.480713
4776.092561	0.087777	0.138341	2819.850098
4776.093460	0.087762	0.138341	2898.748535
4776.094402	0.087751	0.138341	2981.410400
4776.095307	0.087817	0.138341	3060.885010
4776.096196	0.087792	0.138341	3138.931885
4776.097130	0.087799	0.138341	3220.936279
4776.098035	0.087792	0.138341	3300.387695
4777.090511	1.004718	0.143255	442.075897
4777.091416	1.473948	0.143255	1775.998657
4777.092317	0.802086	0.143255	2498.678223
4777.093273	0.094559	0.143255	2589.076904
4777.094177	0.087711	0.143255	2668.367920
4777.095076	0.087792	0.143255	2747.292725
4777.095998	0.087902	0.143255	2828.337891
4777.096904	0.087942	0.143255	2908.013184
4777.097800	0.087865	0.143255	2986.740234
4777.098686	0.087883	0.143255	3064.604736
4777.099632	0.087887	0.143255	3147.745850
4777.100526	0.087854	0.143255	3226.287354
4777.101428	0.087865	0.143255	3305.541504
4778.155470	0.995944	0.143549	439.211090
4778.156368	1.472834	0.143549	1761.816406
4778.157352	0.707164	0.143549	2457.666016
4778.158248	0.093772	0.143549	2541.685791
4778.159138	0.087704	0.143549	2619.742187
4778.160069	0.087737	0.143549	2701.425049
4778.160981	0.087744	0.143549	2781.447754
4778.161886	0.087781	0.143549	2860.889404
4778.162776	0.087795	0.143549	2939.027344
4778.163722	0.087843	0.143549	3022.126953
4778.164631	0.087792	0.143549	3101.929687
4778.165554	0.087729	0.143549	3182.904053
4778.166442	0.087806	0.143549	3260.876221
4779.164118	1.010446	0.146647	449.648285
4779.165023	1.474493	0.146647	1784.064819
4779.165979	0.727811	0.146647	2479.852539
4779.166884	0.093926	0.146647	2564.855469
4779.167789	0.087627	0.146647	2644.157959
4779.168678	0.087777	0.146647	2722.191895
4779.169621	0.087894	0.146647	2805.076172
4779.170530	0.087806	0.146647	2884.892090
4779.171418	0.087759	0.146647	2962.821777
4779.172341	0.087836	0.146647	3043.894043
4779.173261	0.087975	0.146647	3124.830811
4779.174171	0.087755	0.146647	3204.687988
4779.175069	0.087869	0.146647	3283.593994
4780.225009	1.041266	0.141048	496.683807
4780.225904	1.475808	0.141048	1817.531982
4780.226881	0.678087	0.141048	2480.023193
4780.227776	0.092827	0.141048	2563.103516
4780.228694	0.087671	0.141048	2643.585449
4780.229594	0.087770	0.141048	2722.578125
4780.230552	0.087667	0.141048	2806.563232
4780.231454	0.087653	0.141048	2885.625977
4780.232343	0.087817	0.141048	2963.695557
4780.233283	0.087865	0.141048	3046.288574
4780.234197	0.087671	0.141048	3126.419678
4780.235120	0.087751	0.141048	3207.414307
4780.236008	0.087711	0.141048	3285.301758
4781.236695	1.013119	0.145124	451.851013
4781.237603	1.474285	0.145124	1790.501465
4781.238497	0.791993	0.145124	2498.543457
4781.239450	0.094277	0.145124	2588.389648
4781.240355	0.087792	0.145124	2667.841064
4781.241246	0.087744	0.145124	2746.020996
4781.242179	0.087832	0.145124	2827.968262
4781.243079	0.087839	0.145124	2907.023682
4781.243980	0.087733	0.145124	2986.071289
4781.244880	0.087828	0.145124	3065.116943
4781.245813	0.087953	0.145124	3147.177002
4781.246717	0.087803	0.145124	3226.550781
4781.247617	0.087916	0.145124	3305.675293
4782.294988	0.993904	0.141209	435.329834
4782.295938	1.476471	0.141209	1837.977295
4782.296868	0.713188	0.141209	2501.242676
4782.297759	0.094252	0.141209	2585.220947
4782.298675	0.087788	0.141209	2665.634766
4782.299586	0.087909	0.141209	2745.719727
4782.300500	0.087781	0.141209	2825.951416
4782.301397	0.087843	0.141209	2904.746582
4782.302325	0.087869	0.141209	2986.288574
4782.303232	0.087920	0.141209	3066.031982
4782.304135	0.087806	0.141209	3145.321045
4782.305022	0.087766	0.141209	3223.169678
4782.305968	0.087964	0.141209	3306.383545
4783.308236	0.999379	0.146881	438.727203
4783.309221	1.478500	0.146881	1895.049438
4783.310141	0.662549	0.146881	2504.594238
4783.311031	0.092871	0.146881	2587.249512
4783.311954	0.087832	0.146881	2668.318359
4783.312869	0.087861	0.146881	2748.711426
4783.313770	0.087733	0.146881	2827.759033
4783.314665	0.087847	0.146881	2906.381836
4783.315595	0.087784	0.146881	2988.021240
4783.316498	0.087854	0.146881	3067.353516
4783.317401	0.087719	0.146881	3146.563232
4783.318287	0.087843	0.146881	3224.392090
4783.319252	0.087784	0.146881	3309.104004
4784.365004	1.014148	0.139718	447.239258
4784.365989	1.478727	0.139718	1903.785156
4784.366918	0.647593	0.139718	2505.398926
4784.367812	0.092325	0.139718	2587.937988
4784.368745	0.087792	0.139718	2669.847656
4784.369647	0.087898	0.139718	2749.131592
4784.370545	0.087792	0.139718	2827.968506
4784.371430	0.087803	0.139718	2905.673828
4784.372364	0.087964	0.139718	2987.832031
4784.373266	0.087781	0.139718	3067.010254
4784.374170	0.087876	0.139718	3146.450195
4784.375076	0.087865	0.139718	3226.055908
4784.376010	0.087920	0.139718	3308.173096
4785.379810	1.014067	0.145890	455.316254
4785.380724	1.474940	0.145890	1803.411621
4785.381651	0.736582	0.145890	2486.223145
4785.382564	0.094896	0.145890	2572.863281
4785.383517	0.087708	0.145890	2656.448486
4785.384419	0.087799	0.145890	2735.643311
4785.385311	0.087729	0.145890	2813.897949
4785.386250	0.087832	0.145890	2896.372314
4785.387163	0.087751	0.145890	2976.489502
4785.388082	0.087770	0.145890	3057.149902
4785.388974	0.087887	0.145890	3135.545166
4785.389929	0.087858	0.145890	3219.449219
4785.390821	0.087832	0.145890	3297.795410
4786.435543	1.001634	0.143759	442.722443
4786.436465	1.474394	0.143759	1802.114136
4786.437370	0.778597	0.143759	2506.744873
4786.438300	0.096804	0.143759	2596.772705
4786.439212	0.087693	0.143759	2676.748535
4786.440123	0.087755	0.143759	2756.693359
4786.441009	0.087883	0.143759	2834.557861
4786.441942	0.087795	0.143759	2916.470947
4786.442843	0.087880	0.143759	2995.650391
4786.443746	0.087814	0.143759	3074.946289
4786.444635	0.087883	0.143759	3153.074463
4786.445590	0.087957	0.143759	3237.072998
4786.446491	0.087850	0.143759	3316.226074
4787.450327	1.003378	0.146039	442.489563
4787.451225	1.473212	0.146039	1765.433594
4787.452179	0.738680	0.146039	2470.134766
4787.453090	0.094508	0.146039	2556.231689
4787.453988	0.087788	0.146039	2635.065430
4787.454910	0.087891	0.146039	2716.100586
4787.455812	0.087953	0.146039	2795.434082
4787.456725	0.087788	0.146039	2875.584717
4787.457621	0.087843	0.146039	2954.291992
4787.458574	0.087968	0.146039	3038.125000
4787.459475	0.087803	0.146039	3117.235352
4787.460369	0.087799	0.146039	3195.727783
4787.461258	0.087836	0.146039	3273.813721
4788.506579	1.008959	0.143521	453.022461
4788.507477	1.473959	0.143521	1776.637451
4788.508376	0.807400	0.143521	2502.489990
4788.509341	0.094812	0.143521	2593.983643
4788.510253	0.087620	0.143521	2673.892822
4788.511177	0.087781	0.143521	2755.002197
4788.512065	0.087744	0.143521	2832.918945
4788.513021	0.087777	0.143521	2916.833740
4788.513915	0.087810	0.143521	2995.335937
4788.514806	0.087792	0.143521	3073.558350
4788.515742	0.087931	0.143521	3155.861572
4788.516639	0.087748	0.143521	3234.571289
4788.517566	0.087814	0.143521	3315.974609
4789.520843	0.991765	0.149817	434.393127
4789.521800	1.476771	0.149817	1847.663086
4789.522722	0.707117	0.149817	2499.624512
4789.523630	0.093409	0.149817	2584.440186
4789.524524	0.087766	0.149817	2662.903076
4789.525482	0.087979	0.149817	2747.186523
4789.526389	0.087770	0.149817	2826.793701
4789.527276	0.087722	0.149817	2904.603271
4789.528211	0.087788	0.149817	2986.685059
4789.529116	0.087839	0.149817	3066.179687
4789.530023	0.087689	0.149817	3145.713867
4789.530915	0.087726	0.149817	3223.965332
4789.531843	0.087953	0.149817	3305.585693
4790.578183	1.057676	0.139686	528.837830
4790.579091	1.477500	0.139686	1870.407715
4790.580003	0.704766	0.139686	2513.153809
4790.580889	0.094351	0.139686	2596.748535
4790.581836	0.087883	0.139686	2679.974121
4790.582731	0.087880	0.139686	2758.626465
4790.583626	0.087788	0.139686	2837.196777
4790.584556	0.087880	0.139686	2918.924805
4790.585468	0.087935	0.139686	2999.121094
4790.586381	0.087799	0.139686	3079.281738
4790.587276	0.087828	0.139686	3157.888184
4790.588204	0.087916	0.139686	3239.474365
4790.589101	0.087869	0.139686	3318.292480
4791.592412	1.008717	0.146317	447.870361
4791.593318	1.473732	0.146317	1783.071167
4791.594218	0.799534	0.146317	2502.651367
4791.595170	0.096453	0.146317	2594.474365
4791.596082	0.087792	0.146317	2674.540527
4791.596973	0.087748	0.146317	2752.723877
4791.597860	0.087847	0.146317	2830.643799
4791.598795	0.087924	0.146317	2912.852295
4791.599696	0.087850	0.146317	2992.005371
4791.600587	0.087740	0.146317	3070.182129
4791.601504	0.087755	0.146317	3150.653564
4791.602423	0.087898	0.146317	3231.431885
4791.603327	0.087740	0.146317	3310.749268
4792.648172	1.031455	0.144077	476.532288
4792.649085	1.475962	0.144077	1824.085449
4792.649999	0.740870	0.144077	2501.240967
4792.650890	0.095486	0.144077	2586.318848
4792.651822	0.087719	0.144077	2668.072510
4792.652726	0.087770	0.144077	2747.416504
4792.653616	0.087737	0.144077	2825.502197
4792.654567	0.087773	0.144077	2908.974609
4792.655472	0.087891	0.144077	2988.515625
4792.656373	0.087792	0.144077	3067.615967
4792.657264	0.087788	0.144077	3145.835205
4792.658202	0.087876	0.144077	3228.262939
4792.659101	0.087740	0.144077	3307.141602
4793.662934	0.998123	0.146075	441.170166
4793.663826	1.472933	0.146075	1755.026611
4793.664787	0.732836	0.146075	2459.281738
4793.665697	0.094362	0.146075	2545.150879
4793.666594	0.087678	0.146075	2623.798340
4793.667501	0.087795	0.146075	2703.428711
4793.668425	0.087781	0.146075	2784.538086
4793.669335	0.087821	0.146075	2864.455322
4793.670231	0.087781	0.146075	2943.106934
4793.671168	0.087975	0.146075	3025.539307
4793.672066	0.087894	0.146075	3104.468262
4793.672968	0.087865	0.146075	3183.722412
4793.673857	0.087880	0.146075	3261.847412
4794.719190	1.010295	0.144093	450.591736
4794.720095	1.474153	0.144093	1784.699951
4794.720996	0.783717	0.144093	2490.829102
4794.721968	0.093402	0.144093	2581.615967
4794.722869	0.087726	0.144093	2660.656982
4794.723757	0.087792	0.144093	2738.615967
4794.724684	0.087832	0.144093	2820.036133
4794.725580	0.087744	0.144093	2898.654785
4794.726478	0.087744	0.144093	2977.448975
4794.727365	0.087821	0.144093	3055.346191
4794.728298	0.087902	0.144093	3137.358398
4794.729207	0.087744	0.144093	3217.117920
4794.730105	0.087748	0.144093	3295.915527
4795.734001	1.014027	0.149878	481.662811
4795.734939	1.477800	0.149878	1867.839478
4795.735858	0.693186	0.149878	2504.877441
4795.736745	0.093933	0.149878	2588.196045
4795.737694	0.087810	0.149878	2671.527832
4795.738595	0.087872	0.149878	2750.700684
4795.739492	0.087737	0.149878	2829.400635
4795.740387	0.087839	0.149878	2908.016846
4795.741316	0.087924	0.149878	2989.697754
4795.742224	0.087869	0.149878	3069.482422
4795.743122	0.087839	0.149878	3148.362061
4795.744043	0.087737	0.149878	3229.167725
4795.744957	0.087913	0.149878	3309.519775
4796.790216	0.995453	0.142115	436.008331
4796.791184	1.476881	0.142115	1865.629150
4796.792116	0.684569	0.142115	2503.647461
4796.793009	0.093127	0.142115	2586.810303
4796.793931	0.087689	0.142115	2667.659668
4796.794855	0.087814	0.142115	2748.799561
4796.795758	0.087821	0.142115	2828.102051
4796.796654	0.087737	0.142115	2906.714355
4796.797585	0.087887	0.142115	2988.537109
4796.798480	0.087872	0.142115	3067.182861
4796.799377	0.087773	0.142115	3145.915527
4796.800259	0.087784	0.142115	3223.341309
4796.801203	0.087927	0.142115	3306.344727
4797.805008	0.999423	0.147384	436.747681
4797.805923	1.474175	0.147384	1785.617676
4797.806826	0.794821	0.147384	2503.340576
4797.807768	0.097123	0.147384	2594.830322
4797.808670	0.087770	0.147384	2673.998535
4797.809564	0.087843	0.147384	2752.530273
4797.810451	0.087825	0.147384	2830.430908
4797.811397	0.087898	0.147384	2913.582275
4797.812303	0.087781	0.147384	2993.111572
4797.813204	0.087839	0.147384	3072.254883
4797.814092	0.087788	0.147384	3150.210693
4797.815055	0.087836	0.147384	3234.796387
4797.815961	0.087773	0.147384	3314.319092
4798.861774	0.999620	0.144387	438.833344
4798.862677	1.473355	0.144387	1769.272583
4798.863576	0.796479	0.144387	2485.307617
4798.864546	0.094241	0.144387	2576.721191
4798.865456	0.087689	0.144387	2656.518311
4798.866355	0.087781	0.144387	2735.433105
4798.867288	0.087964	0.144387	2817.503418
4798.868188	0.087869	0.144387	2896.585205
4798.869079	0.087817	0.144387	2974.830566
4798.869965	0.087792	0.144387	3052.614014
4798.870904	0.087938	0.144387	3135.187988
4798.871808	0.087821	0.144387	3214.578125
4798.872710	0.087817	0.144387	3293.789307
4799.875542	1.006443	0.149386	441.828430
4799.876456	1.474409	0.149386	1789.438477
4799.877352	0.801185	0.149386	2507.300537
4799.878302	0.094933	0.149386	2597.486816
4799.879205	0.087748	0.149386	2676.723145
4799.880110	0.087825	0.149386	2756.204590
4799.881005	0.087924	0.149386	2834.896240
4799.881965	0.087656	0.149386	2919.046143
4799.882875	0.087814	0.149386	2998.956543
4799.883763	0.087979	0.149386	3077.081543
4799.884699	0.087825	0.149386	3159.285400
4799.885611	0.087795	0.149386	3239.354736
4799.886530	0.087909	0.149386	3320.143066
4800.933319	1.005795	0.144178	439.532257
4800.934291	1.477701	0.144178	1875.858032
4800.935214	0.685258	0.144178	2508.350830
4800.936104	0.093519	0.144178	2591.583008
4800.937044	0.087828	0.144178	2674.141602
4800.937948	0.087883	0.144178	2753.588135
4800.938844	0.087795	0.144178	2832.252930
4800.939734	0.087876	0.144178	2910.462646
4800.940690	0.087971	0.144178	2994.562988
4800.941583	0.087883	0.144178	3073.042725
4800.942483	0.087891	0.144178	3152.144287
4800.943373	0.087759	0.144178	3230.249512
4800.944326	0.087891	0.144178	3314.009277
4801.944535	1.013079	0.148556	451.833038
4801.945440	1.474321	0.148556	1786.093872
4801.946337	0.804492	0.148556	2507.723389
4801.947294	0.094453	0.148556	2598.114990
4801.948202	0.087770	0.148556	2677.810059
4801.949098	0.087836	0.148556	2756.510742
4801.950004	0.087924	0.148556	2836.169434
4801.950921	0.087957	0.148556	2916.825684
4801.951836	0.087817	0.148556	2997.178467
4801.952737	0.087902	0.148556	3076.377930
4801.953667	0.087905	0.148556	3158.129883
4801.954573	0.087909	0.148556	3237.775391
4801.955470	0.087799	0.148556	3316.531250
4803.005909	1.000093	0.142864	444.041168
4803.006803	1.473073	0.142864	1760.968018
4803.007782	0.714397	0.142864	2460.362549
4803.008684	0.094237	0.142864	2545.364258
4803.009574	0.087869	0.142864	2623.567383
4803.010506	0.087975	0.142864	2705.560059
4803.011416	0.087964	0.142864	2785.607178
4803.012325	0.087927	0.142864	2865.532959
4803.013218	0.087883	0.142864	2944.012695
4803.014163	0.088030	0.142864	3027.200928
4803.015075	0.087990	0.142864	3107.447266
4803.015973	0.087847	0.142864	3186.333496
4803.016859	0.087883	0.142864	3264.197998
4804.014049	1.014836	0.148206	457.691223
4804.014968	1.475131	0.148206	1813.336426
4804.015870	0.768197	0.148206	2506.250000
4804.016805	0.095574	0.148206	2595.611328
4804.017703	0.087806	0.148206	2674.461426
4804.018605	0.087850	0.148206	2753.702393
4804.019491	0.087799	0.148206	2831.492432
4804.020439	0.087898	0.148206	2914.819580
4804.021352	0.087817	0.148206	2994.996826
4804.022248	0.087850	0.148206	3073.710693
4804.023162	0.087781	0.148206	3153.942383
4804.024081	0.087964	0.148206	3234.781250
4804.024988	0.087876	0.148206	3314.484863
4805.078985	0.997097	0.143195	436.728577
4805.079944	1.474266	0.143195	1850.550049
4805.080868	0.702195	0.143195	2499.378174
4805.081768	0.094036	0.143195	2584.010254
4805.082658	0.087704	0.143195	2662.066650
4805.083608	0.087986	0.143195	2745.653320
4805.084517	0.087858	0.143195	2825.515869
4805.085422	0.087869	0.143195	2905.037109
4805.086313	0.087850	0.143195	2983.311768
4805.087252	0.087964	0.143195	3065.909912
4805.088163	0.087817	0.143195	3145.911621
4805.089061	0.087902	0.143195	3224.847168
4805.089994	0.087872	0.143195	3306.832031
4806.082509	0.998771	0.152178	438.460358
4806.083454	1.473252	0.152178	1830.683350
4806.084400	0.684064	0.152178	2477.807617
4806.085310	0.092981	0.152178	2562.420410
4806.086196	0.087836	0.152178	2640.242920
4806.087126	0.088004	0.152178	2722.086670
4806.088039	0.087843	0.152178	2802.287354
4806.088940	0.087942	0.152178	2881.522949
4806.089829	0.087839	0.152178	2959.612061
4806.090776	0.087975	0.152178	3042.924316
4806.091673	0.087924	0.152178	3121.791748
4806.092558	0.087847	0.152178	3199.536133
4806.093494	0.087920	0.152178	3281.829102
4807.151568	0.998584	0.141720	440.375549
4807.152463	1.472919	0.141720	1758.637695
4807.153439	0.719139	0.141720	2460.517822
4807.154356	0.094021	0.141720	2546.735107
4807.155243	0.087784	0.141720	2624.599854
4807.156147	0.087869	0.141720	2704.033203
4807.157081	0.087894	0.141720	2786.126465
4807.157990	0.087814	0.141720	2865.949219
4807.158886	0.087781	0.141720	2944.600830
4807.159814	0.087880	0.141720	3026.153076
4807.160722	0.087854	0.141720	3105.924561
4807.161618	0.087814	0.141720	3184.605713
4807.162504	0.087828	0.141720	3262.421631
4808.151511	1.003579	0.150417	448.599884
4808.152406	1.473029	0.150417	1766.960449
4808.153376	0.726775	0.150417	2471.932129
4808.154276	0.094189	0.150417	2556.702637
4808.155175	0.087744	0.150417	2635.584717
4808.156096	0.087806	0.150417	2716.454346
4808.157023	0.087814	0.150417	2797.857666
4808.157931	0.087773	0.150417	2877.555908
4808.158828	0.087675	0.150417	2956.199951
4808.159773	0.087920	0.150417	3039.284180
4808.160674	0.087902	0.150417	3118.483643
4808.161575	0.087751	0.150417	3197.547607
4808.162459	0.087836	0.150417	3275.194336
4809.223631	1.002096	0.142715	444.930603
4809.224543	1.474120	0.142715	1789.327881
4809.225451	0.781234	0.142715	2498.688477
4809.226384	0.095083	0.142715	2587.400879
4809.227284	0.087719	0.142715	2666.347656
4809.228186	0.087795	0.142715	2745.539062
4809.229074	0.087781	0.142715	2823.488281
4809.230011	0.087938	0.142715	2905.886475
4809.230926	0.087726	0.142715	2986.155518
4809.231819	0.087766	0.142715	3064.530762
4809.232759	0.087876	0.142715	3147.134277
4809.233666	0.087773	0.142715	3226.744873
4809.234566	0.087839	0.142715	3305.800293
4810.221516	0.997537	0.152694	438.916107
4810.222411	1.472655	0.152694	1756.942261
4810.223398	0.701521	0.152694	2449.343506
4810.224319	0.093472	0.152694	2535.430908
4810.225208	0.087759	0.152694	2613.448486
4810.226136	0.087854	0.152694	2694.977051
4810.227034	0.087858	0.152694	2773.873291
4810.227933	0.087766	0.152694	2852.774902
4810.228824	0.087733	0.152694	2930.945068
4810.229771	0.087828	0.152694	3014.118652
4810.230688	0.087876	0.152694	3094.700928
4810.231590	0.087843	0.152694	3173.935303
4810.232493	0.087799	0.152694	3253.217773
4811.295186	1.005450	0.142582	444.409119
4811.296086	1.473677	0.142582	1770.718018
4811.297078	0.694069	0.142582	2459.234131
4811.297974	0.093790	0.142582	2543.270264
4811.298862	0.087722	0.142582	2621.167480
4811.299818	0.087887	0.142582	2705.187500
4811.300716	0.087784	0.142582	2784.017822
4811.301615	0.087799	0.142582	2862.949219
4811.302505	0.087825	0.142582	2941.113281
4811.303435	0.087953	0.142582	3022.909424
4811.304349	0.087876	0.142582	3103.228027
4811.305255	0.087847	0.142582	3182.817139
4811.306144	0.087792	0.142582	3260.864014
4812.292602	1.031909	0.153475	498.412170
4812.293518	1.476885	0.153475	1851.238525
4812.294435	0.710215	0.153475	2502.505615
4812.295321	0.094321	0.153475	2586.074219
4812.296270	0.087729	0.153475	2669.329590
4812.297176	0.087806	0.153475	2748.882080
4812.298070	0.087832	0.153475	2827.403809
4812.298979	0.087675	0.153475	2907.100098
4812.299888	0.087946	0.153475	2987.042725
4812.300804	0.087719	0.153475	3067.392822
4812.301700	0.087744	0.153475	3146.011475
4812.302629	0.087697	0.153475	3227.481445
4812.303533	0.087957	0.153475	3306.994141
4813.365766	1.033110	0.141902	512.422668
4813.366683	1.477214	0.141902	1867.028320
4813.367592	0.703000	0.141902	2506.055664
4813.368479	0.094003	0.141902	2589.436035
4813.369411	0.087770	0.141902	2671.237549
4813.370314	0.087902	0.141902	2750.612793
4813.371218	0.087847	0.141902	2830.026123
4813.372109	0.087828	0.141902	2908.281250
4813.373054	0.087913	0.141902	2991.358643
4813.373966	0.087792	0.141902	3071.424805
4813.374862	0.087737	0.141902	3150.037109
4813.375805	0.087854	0.141902	3232.883545
4813.376709	0.087843	0.141902	3312.293701
4814.364108	0.992717	0.150558	434.810181
4814.365006	1.473124	0.150558	1757.675293
4814.365988	0.701587	0.150558	2446.633545
4814.366887	0.093743	0.150558	2530.908203
4814.367787	0.087678	0.150558	2609.818604
4814.368672	0.087843	0.150558	2687.559570
4814.369611	0.087971	0.150558	2770.164551
4814.370511	0.087795	0.150558	2849.180420
4814.371408	0.087832	0.150558	2927.965820
4814.372338	0.087982	0.150558	3009.789307
4814.373241	0.087843	0.150558	3089.111572
4814.374140	0.087792	0.150558	3168.036377
4814.375027	0.087858	0.150558	3245.966064
4815.435213	1.010057	0.144000	447.455383
4815.436164	1.476841	0.144000	1851.931152
4815.437089	0.701067	0.144000	2500.417969
4815.437984	0.093684	0.144000	2584.265137
4815.438909	0.087883	0.144000	2665.557129
4815.439815	0.087883	0.144000	2745.179443
4815.440720	0.087817	0.144000	2824.654053
4815.441607	0.087847	0.144000	2902.573975
4815.442556	0.087891	0.144000	2985.982178
4815.443450	0.087861	0.144000	3064.530273
4815.444348	0.087858	0.144000	3143.426514
4815.445232	0.087770	0.144000	3221.014893
4815.446167	0.087880	0.144000	3303.182373
4816.437208	1.011105	0.152428	450.952698
4816.438107	1.473691	0.152428	1775.801270
4816.439005	0.812201	0.152428	2505.157715
4816.439962	0.094673	0.152428	2595.759521
4816.440872	0.087722	0.152428	2675.586670
4816.441798	0.087810	0.152428	2756.898682
4816.442691	0.087902	0.152428	2835.394775
4816.443639	0.087836	0.152428	2918.663086
4816.444535	0.087825	0.152428	2997.354004
4816.445420	0.087935	0.152428	3075.176025
4816.446349	0.087964	0.152428	3156.894531
4816.447254	0.087825	0.152428	3236.375977
4816.448170	0.087792	0.152428	3316.793213
4817.504212	0.999965	0.145684	441.984344
4817.505140	1.473527	0.145684	1809.417114
4817.506080	0.721988	0.145684	2488.086426
4817.506988	0.094175	0.145684	2573.597168
4817.507878	0.087748	0.145684	2651.692627
4817.508813	0.087902	0.145684	2733.880615
4817.509715	0.087953	0.145684	2813.214111
4817.510623	0.087887	0.145684	2893.015381
4817.511509	0.087854	0.145684	2970.854004
4817.512463	0.087832	0.145684	3054.645752
4817.513371	0.087872	0.145684	3134.433838
4817.514261	0.087861	0.145684	3212.630371
4817.515179	0.087894	0.145684	3293.317383
4818.509282	1.011035	0.151292	455.976837
4818.510203	1.475372	0.151292	1814.794678
4818.511106	0.763491	0.151292	2504.227295
4818.512049	0.094904	0.151292	2593.721436
4818.512952	0.087766	0.151292	2672.974121
4818.513858	0.087781	0.151292	2752.503418
4818.514750	0.087894	0.151292	2830.905029
4818.515704	0.087924	0.151292	2914.784180
4818.516609	0.087854	0.151292	2994.291992
4818.517507	0.087854	0.151292	3073.184814
4818.518435	0.087949	0.151292	3154.801758
4818.519343	0.087946	0.151292	3234.656250
4818.520240	0.087839	0.151292	3313.448242
4819.573209	1.014056	0.144117	460.381622
4819.574109	1.474332	0.144117	1787.280640
4819.575048	0.765406	0.144117	2505.997314
4819.575962	0.094849	0.144117	2592.688965
4819.576858	0.087737	0.144117	2671.301270
4819.577743	0.087719	0.144117	2748.932129
4819.578688	0.087861	0.144117	2831.961182
4819.579593	0.087905	0.144117	2911.515381
4819.580490	0.087788	0.144117	2990.261230
4819.581377	0.087777	0.144117	3068.119629
4819.582330	0.087964	0.144117	3151.949219
4819.583241	0.087828	0.144117	3231.960937
4819.584135	0.087810	0.144117	3310.463135
4820.581888	1.058884	0.151960	522.029968
4820.582812	1.477866	0.151960	1887.578369
4820.583725	0.682731	0.151960	2510.911621
4820.584614	0.093527	0.151960	2594.056885
4820.585577	0.087865	0.151960	2678.670898
4820.586483	0.087887	0.151960	2758.296387
4820.587383	0.087828	0.151960	2837.342041
4820.588314	0.087795	0.151960	2919.079590
4820.589216	0.087843	0.151960	2998.313965
4820.590116	0.087788	0.151960	3077.323242
4820.591003	0.087737	0.151960	3155.145752
4820.591938	0.087898	0.151960	3237.330322
4820.592838	0.087931	0.151960	3316.468018
4821.643226	1.015338	0.143678	456.902191
4821.644132	1.474684	0.143678	1792.965820
4821.645091	0.714023	0.143678	2477.714355
4821.645992	0.093816	0.143678	2562.242432
4821.646895	0.087700	0.143678	2641.435791
4821.647782	0.087891	0.143678	2719.394775
4821.648725	0.087902	0.143678	2802.285889
4821.649629	0.087795	0.143678	2881.652832
4821.650519	0.087894	0.143678	2959.878662
4821.651439	0.087737	0.143678	3040.596436
4821.652360	0.087905	0.143678	3121.557129
4821.653272	0.087722	0.143678	3201.559814
4821.654168	0.087836	0.143678	3280.260498
4822.653392	0.997555	0.152810	439.921722
4822.654288	1.472743	0.152810	1759.499390
4822.655266	0.709157	0.152810	2453.054443
4822.656168	0.093973	0.152810	2537.818359
4822.657057	0.087832	0.152810	2615.901123
4822.657967	0.087792	0.152810	2695.791504
4822.658891	0.087949	0.152810	2777.056641
4822.659789	0.087803	0.152810	2855.903564
4822.660685	0.087909	0.152810	2934.669922
4822.661619	0.087832	0.152810	3016.705078
4822.662531	0.087902	0.152810	3096.871338
4822.663430	0.087762	0.152810	3175.769775
4822.664318	0.087784	0.152810	3253.722412
4823.712732	1.009080	0.145821	453.076721
4823.713633	1.473926	0.145821	1781.083740
4823.714528	0.808663	0.145821	2504.837402
4823.715487	0.094746	0.145821	2595.698975
4823.716402	0.087814	0.145821	2676.048584
4823.717294	0.087810	0.145821	2754.375244
4823.718180	0.087861	0.145821	2832.220459
4823.719126	0.087887	0.145821	2915.361572
4823.720035	0.087825	0.145821	2995.194336
4823.720928	0.088008	0.145821	3073.785400
4823.721863	0.087891	0.145821	3155.963135
4823.722783	0.087858	0.145821	3236.792236
4823.723686	0.087872	0.145821	3316.140869
4824.724949	1.005147	0.151787	447.290192
4824.725866	1.474636	0.151787	1799.531494
4824.726778	0.777729	0.151787	2508.820801
4824.727667	0.096801	0.151787	2594.876465
4824.728623	0.087814	0.151787	2678.826416
4824.729528	0.087759	0.151787	2758.248047
4824.730415	0.087770	0.151787	2836.099854
4824.731343	0.087883	0.151787	2917.655518
4824.732258	0.087964	0.151787	2998.142578
4824.733159	0.087839	0.151787	3077.285889
4824.734052	0.087836	0.151787	3155.723145
4824.735017	0.087828	0.151787	3240.477539
4824.735925	0.087729	0.151787	3320.135986
4825.783752	0.997573	0.147501	436.937073
4825.784713	1.475643	0.147501	1855.030273
4825.785638	0.695771	0.147501	2498.618896
4825.786550	0.093127	0.147501	2583.551025
4825.787435	0.087858	0.147501	2661.305176
4825.788380	0.087927	0.147501	2744.396484
4825.789297	0.087883	0.147501	2824.985352
4825.790190	0.087839	0.147501	2903.425781
4825.791112	0.087825	0.147501	2984.400146
4825.792017	0.087916	0.147501	3063.964355
4825.792918	0.087814	0.147501	3143.084473
4825.793803	0.087836	0.147501	3220.819092
4825.794751	0.088044	0.147501	3304.285156
4826.796495	1.002356	0.153648	445.046021
4826.797387	1.473065	0.153648	1759.020142
4826.798375	0.704271	0.153648	2454.840088
4826.799285	0.093666	0.153648	2540.075928
4826.800172	0.087836	0.153648	2617.986084
4826.801102	0.087781	0.153648	2699.622314
4826.802008	0.087803	0.153648	2779.171631
4826.802910	0.087740	0.153648	2858.313477
4826.803795	0.087766	0.153648	2935.986572
4826.804758	0.087916	0.153648	3020.649902
4826.805657	0.087847	0.153648	3099.624023
4826.806555	0.087880	0.153648	3178.540039
4826.807439	0.087832	0.153648	3256.183594
4827.854333	1.031506	0.145720	500.280609
4827.855247	1.477057	0.145720	1850.310669
4827.856156	0.730210	0.145720	2514.071533
4827.857042	0.095087	0.145720	2598.318359
4827.857998	0.087806	0.145720	2682.261230
4827.858898	0.087920	0.145720	2761.389160
4827.859794	0.087770	0.145720	2840.030762
4827.860694	0.087719	0.145720	2918.977539
4827.861629	0.087942	0.145720	3001.203125
4827.862534	0.087719	0.145720	3080.588379
4827.863432	0.087803	0.145720	3159.435303
4827.864363	0.087905	0.145720	3241.275146
4827.865260	0.087913	0.145720	3320.132812
4828.868043	1.008929	0.153012	443.928986
4828.869009	1.477207	0.153012	1870.911011
4828.869932	0.686543	0.153012	2504.590332
4828.870823	0.093479	0.153012	2587.880127
4828.871757	0.087792	0.153012	2669.877686
4828.872665	0.087726	0.153012	2749.532715
4828.873582	0.087792	0.153012	2830.037842
4828.874470	0.087861	0.153012	2908.058594
4828.875410	0.087861	0.153012	2990.648193
4828.876305	0.087748	0.153012	3069.182373
4828.877230	0.087891	0.153012	3150.481201
4828.878118	0.087832	0.153012	3228.476074
4828.879060	0.087806	0.153012	3311.189697
4829.924829	1.008402	0.147078	450.755737
4829.925749	1.474424	0.147078	1807.225708
4829.926646	0.778956	0.147078	2505.949463
4829.927588	0.095295	0.147078	2595.717773
4829.928490	0.087792	0.147078	2674.906006
4829.929389	0.087850	0.147078	2753.883545
4829.930276	0.087887	0.147078	2831.839355
4829.931235	0.087913	0.147078	2916.147461
4829.932151	0.087847	0.147078	2996.614990
4829.933047	0.087847	0.147078	3075.325684
4829.933969	0.087894	0.147078	3156.364258
4829.934873	0.087924	0.147078	3235.847168
4829.935783	0.087887	0.147078	3315.824219
4830.938573	1.000063	0.152009	440.027893
4830.939478	1.473849	0.152009	1773.861084
4830.940386	0.791250	0.152009	2492.316162
4830.941337	0.094644	0.152009	2582.322266
4830.942248	0.087726	0.152009	2662.240479
4830.943141	0.087883	0.152009	2740.720215
4830.944083	0.087953	0.152009	2823.571777
4830.944983	0.087847	0.152009	2902.633789
4830.945882	0.087847	0.152009	2981.607910
4830.946771	0.087828	0.152009	3059.687256
4830.947719	0.087960	0.152009	3143.073486
4830.948626	0.087847	0.152009	3222.750488
4830.949529	0.087722	0.152009	3301.963623
4831.995376	1.033704	0.148524	489.975555
4831.996273	1.475431	0.148524	1813.437134
4831.997230	0.705092	0.148524	2488.209717
4831.998134	0.093062	0.148524	2572.337402
4831.999037	0.087678	0.148524	2651.510742
4831.999927	0.087762	0.148524	2729.619385
4832.000880	0.087843	0.148524	2813.333740
4832.001775	0.087740	0.148524	2891.861572
4832.002678	0.087898	0.148524	2971.233398
4832.003564	0.087839	0.148524	3049.059082
4832.004505	0.087909	0.148524	3131.781494
4832.005410	0.087675	0.148524	3211.126953
4832.006301	0.087693	0.148524	3289.261230
4833.009105	0.988799	0.154820	430.127472
4833.010001	1.472336	0.154820	1749.340820
4833.010974	0.728397	0.154820	2458.071289
4833.011877	0.094614	0.154820	2543.508057
4833.012773	0.087781	0.154820	2622.159668
4833.013699	0.088037	0.154820	2703.682129
4833.014605	0.087942	0.154820	2783.357422
4833.015514	0.087821	0.154820	2863.186768
4833.016412	0.087803	0.154820	2942.033691
4833.017345	0.087887	0.154820	3024.032227
4833.018257	0.087865	0.154820	3104.165039
4833.019165	0.087843	0.154820	3183.926514
4833.020053	0.087825	0.154820	3261.914795
4834.066893	1.000155	0.146768	442.068512
4834.067860	1.477529	0.146768	1870.839355
4834.068783	0.691051	0.146768	2508.679443
4834.069673	0.093406	0.146768	2591.810547
4834.070586	0.087678	0.146768	2671.860840
4834.071516	0.087839	0.146768	2753.551514
4834.072414	0.087729	0.146768	2832.332520
4834.073300	0.087697	0.146768	2910.031738
4834.074241	0.087876	0.146768	2992.723145
4834.075139	0.087843	0.146768	3071.606201
4834.076043	0.087850	0.146768	3151.022949
4834.076929	0.087770	0.146768	3228.786865
4834.077869	0.087817	0.146768	3311.335205
4835.079628	0.993289	0.153874	434.067078
4835.080581	1.475684	0.153874	1840.393555
4835.081494	0.729844	0.153874	2506.740967
4835.082386	0.094629	0.153874	2591.149902
4835.083282	0.087704	0.153874	2669.732666
4835.084231	0.087938	0.153874	2753.186035
4835.085137	0.087843	0.153874	2832.771729
4835.086034	0.087682	0.153874	2911.422363
4835.086966	0.087839	0.153874	2993.288574
4835.087875	0.087810	0.153874	3073.107910
4835.088776	0.087693	0.153874	3152.119141
4835.089663	0.087744	0.153874	3229.948242
4835.090616	0.087682	0.153874	3313.509033
4836.137990	1.059031	0.148516	517.866028
4836.138902	1.476859	0.148516	1864.761475
4836.139831	0.685616	0.148516	2501.699219
4836.140723	0.093519	0.148516	2585.118408
4836.141704	0.087686	0.148516	2671.137939
4836.142608	0.087806	0.148516	2750.514893
4836.143494	0.087839	0.148516	2828.340576
4836.144424	0.087825	0.148516	2910.017578
4836.145330	0.087697	0.148516	2989.470703
4836.146252	0.087814	0.148516	3070.435059
4836.147139	0.087861	0.148516	3148.368164
4836.148083	0.087843	0.148516	3231.291992
4836.148977	0.087748	0.148516	3309.738525
4837.150211	1.047246	0.153958	519.434082
4837.151118	1.477218	0.153958	1859.270874
4837.152034	0.698474	0.153958	2499.073242
4837.152923	0.094065	0.153958	2582.697021
4837.153885	0.087792	0.153958	2667.152588
4837.154795	0.087792	0.153958	2747.042969
4837.155695	0.087693	0.153958	2825.966553
4837.156620	0.087737	0.153958	2907.123047
4837.157521	0.087810	0.153958	2986.239990
4837.158430	0.087715	0.153958	3065.972900
4837.159319	0.087847	0.153958	3144.068604
4837.160260	0.087740	0.153958	3226.632324
4837.161163	0.087803	0.153958	3305.918213
4838.209482	1.000492	0.148170	439.215973
4838.210450	1.477621	0.148170	1869.552856
4838.211376	0.689030	0.148170	2507.594238
4838.212268	0.093278	0.148170	2590.797852
4838.213203	0.087777	0.148170	2672.869385
4838.214105	0.088008	0.148170	2752.252441
4838.214999	0.087880	0.148170	2830.816895
4838.215884	0.087825	0.148170	2908.541748
4838.216828	0.087847	0.148170	2991.468994
4838.217718	0.087777	0.148170	3069.590576
4838.218617	0.087726	0.148170	3148.456055
4838.219505	0.087806	0.148170	3226.428223
4838.220457	0.087865	0.148170	3310.075684
4839.219655	0.991198	0.155074	432.162109
4839.220612	1.476746	0.155074	1845.407715
4839.221546	0.695947	0.155074	2495.422363
4839.222449	0.093420	0.155074	2579.781006
4839.223345	0.087803	0.155074	2658.452148
4839.224294	0.087825	0.155074	2741.797852
4839.225194	0.087784	0.155074	2820.803711
4839.226086	0.087872	0.155074	2899.185791
4839.227026	0.088011	0.155074	2981.916504
4839.227925	0.087806	0.155074	3060.854492
4839.228828	0.087872	0.155074	3140.203125
4839.229716	0.087821	0.155074	3218.188232
4839.230643	0.087982	0.155074	3299.747803
4840.281566	1.006527	0.146421	452.937195
4840.282461	1.473464	0.146421	1771.687744
4840.283409	0.737256	0.146421	2470.606445
4840.284317	0.094501	0.146421	2556.413086
4840.285222	0.087656	0.146421	2635.741943
4840.286115	0.087799	0.146421	2714.146484
4840.287077	0.087814	0.146421	2798.623291
4840.287987	0.087759	0.146421	2878.483887
4840.288882	0.087733	0.146421	2957.005127
4840.289804	0.087865	0.146421	3038.016602
4840.290696	0.087880	0.146421	3116.405273
4840.291592	0.087704	0.146421	3194.988037
4840.292479	0.087729	0.146421	3272.804199
4841.289163	0.995691	0.154103	435.116943
4841.290059	1.472421	0.154103	1754.405884
4841.291051	0.700983	0.154103	2449.780762
4841.291946	0.093864	0.154103	2533.788574
4841.292833	0.087660	0.154103	2611.542969
4841.293772	0.087931	0.154103	2694.110107
4841.294683	0.087722	0.154103	2774.024902
4841.295585	0.087744	0.154103	2853.170166
4841.296472	0.087872	0.154103	2931.112793
4841.297401	0.087861	0.154103	3012.736084
4841.298302	0.087737	0.154103	3091.786865
4841.299222	0.087777	0.154103	3172.541748
4841.300108	0.087740	0.154103	3250.279785
4842.354123	1.004238	0.146792	442.869080
4842.355030	1.474003	0.146792	1779.789551
4842.355937	0.788829	0.146792	2495.257812
4842.356886	0.094435	0.146792	2584.876465
4842.357796	0.087740	0.146792	2664.720215
4842.358686	0.087913	0.146792	2742.962402
4842.359623	0.087836	0.146792	2825.264404
4842.360523	0.087916	0.146792	2904.389160
4842.361421	0.087792	0.146792	2983.226074
4842.362305	0.087865	0.146792	3060.898682
4842.363236	0.087924	0.146792	3142.755615
4842.364135	0.087843	0.146792	3221.726562
4842.365029	0.087828	0.146792	3300.245117
4843.358665	0.994252	0.156661	432.499512
4843.359635	1.475361	0.156661	1863.599976
4843.360554	0.697277	0.156661	2504.397217
4843.361445	0.093801	0.156661	2587.974121
4843.362335	0.087766	0.156661	2666.085937
4843.363283	0.088000	0.156661	2749.510498
4843.364189	0.087821	0.156661	2829.076416
4843.365086	0.087949	0.156661	2907.966797
4843.366020	0.087975	0.156661	2990.135254
4843.366922	0.087916	0.156661	3069.435791
4843.367814	0.087887	0.156661	3147.831055
4843.368703	0.087719	0.156661	3225.812744
4843.369646	0.087847	0.156661	3308.652100
4844.426711	1.010131	0.146864	450.518280
4844.427626	1.474611	0.146864	1799.786987
4844.428538	0.768545	0.146864	2500.699951
4844.429483	0.094893	0.146864	2590.373535
4844.430387	0.087726	0.146864	2669.677734
4844.431286	0.087766	0.146864	2748.579590
4844.432172	0.087759	0.146864	2826.333984
4844.433113	0.087876	0.146864	2909.025391
4844.434014	0.087946	0.146864	2988.264404
4844.434913	0.087799	0.146864	3067.195801
4844.435838	0.087891	0.146864	3148.494629
4844.436756	0.087982	0.146864	3229.262207
4844.437664	0.087799	0.146864	3308.983887
4845.427675	1.006655	0.156516	449.974884
4845.428567	1.473073	0.156516	1763.955566
4845.429541	0.715463	0.156516	2460.816162
4845.430450	0.093915	0.156516	2546.184814
4845.431348	0.087719	0.156516	2624.956055
4845.432232	0.087744	0.156516	2702.521973
4845.433186	0.087905	0.156516	2786.383545
4845.434094	0.087817	0.156516	2866.121826
4845.434990	0.087828	0.156516	2944.816162
4845.435914	0.087887	0.156516	3026.023682
4845.436826	0.087946	0.156516	3106.229980
4845.437729	0.087850	0.156516	3185.558838
4845.438617	0.087869	0.156516	3263.586182
4846.498758	0.989817	0.147022	428.590698
4846.499709	1.474860	0.147022	1831.182129
4846.500643	0.707783	0.147022	2492.251709
4846.501539	0.093937	0.147022	2576.418945
4846.502429	0.087609	0.147022	2654.390625
4846.503378	0.087810	0.147022	2737.722412
4846.504284	0.087784	0.147022	2817.255127
4846.505176	0.087788	0.147022	2895.562012
4846.506099	0.087784	0.147022	2976.586914
4846.507014	0.087821	0.147022	3056.943115
4846.507909	0.087806	0.147022	3135.529785
4846.508798	0.087828	0.147022	3213.609131
4846.509730	0.087839	0.147022	3295.475342
4847.498184	0.995848	0.157467	435.185760
4847.499154	1.475160	0.157467	1866.090820
4847.500066	0.697767	0.157467	2502.454590
4847.500969	0.093439	0.157467	2586.829834
4847.501857	0.087678	0.157467	2664.687988
4847.502792	0.087916	0.157467	2746.889648
4847.503698	0.087905	0.157467	2826.531738
4847.504593	0.087876	0.157467	2905.180664
4847.505516	0.087920	0.157467	2986.330811
4847.506424	0.087971	0.157467	3066.208740
4847.507334	0.087719	0.157467	3146.032471
4847.508223	0.087825	0.157467	3224.108643
4847.509153	0.087905	0.157467	3305.860596
4848.569818	1.013430	0.147247	459.083832
4848.570716	1.473966	0.147247	1782.705444
4848.571614	0.806807	0.147247	2507.217773
4848.572560	0.094728	0.147247	2596.830322
4848.573470	0.087693	0.147247	2676.630859
4848.574366	0.087766	0.147247	2755.269287
4848.575254	0.087751	0.147247	2833.192627
4848.576189	0.087880	0.147247	2915.360107
4848.577098	0.087740	0.147247	2995.116211
4848.577991	0.087832	0.147247	3073.550293
4848.578945	0.087894	0.147247	3157.401367
4848.579840	0.087806	0.147247	3235.988037
4848.580736	0.087744	0.147247	3314.606689
4849.568769	1.030107	0.156730	507.842926
4849.569690	1.477910	0.156730	1868.998169
4849.570610	0.683595	0.156730	2497.905518
4849.571502	0.093424	0.156730	2581.239746
4849.572453	0.087847	0.156730	2664.781982
4849.573355	0.087880	0.156730	2744.049316
4849.574258	0.087777	0.156730	2823.312012
4849.575144	0.087799	0.156730	2901.102051
4849.576089	0.087953	0.156730	2984.217529
4849.576994	0.087788	0.156730	3063.665771
4849.577881	0.087832	0.156730	3141.572754
4849.578817	0.088011	0.156730	3223.951416
4849.579721	0.087902	0.156730	3303.414551
4850.641354	0.995541	0.146546	436.046844
4850.642322	1.477225	0.146546	1866.001099
4850.643248	0.681064	0.146546	2496.666748
4850.644151	0.092904	0.146546	2580.559082
4850.645040	0.087795	0.146546	2658.609131
4850.645983	0.088000	0.146546	2741.593506
4850.646887	0.087836	0.146546	2820.997070
4850.647775	0.087843	0.146546	2899.001709
4850.648716	0.087883	0.146546	2981.699951
4850.649618	0.087784	0.146546	3060.881592
4850.650513	0.087777	0.146546	3139.442139
4850.651399	0.087781	0.146546	3217.215820
4850.652337	0.087931	0.146546	3299.695068
4851.639800	1.038904	0.155485	491.401459
4851.640699	1.475702	0.155485	1818.057495
4851.641628	0.723658	0.155485	2490.336182
4851.642523	0.094563	0.155485	2574.969971
4851.643478	0.087748	0.155485	2658.769043
4851.644380	0.087832	0.155485	2737.993652
4851.645269	0.087880	0.155485	2816.118652
4851.646195	0.087894	0.155485	2897.508789
4851.647109	0.087784	0.155485	2977.743652
4851.648021	0.087872	0.155485	3057.883301
4851.648909	0.087909	0.155485	3135.946533
4851.649851	0.087828	0.155485	3218.680908
4851.650748	0.087806	0.155485	3297.443359
4852.710859	0.992611	0.149145	431.785828
4852.711803	1.473395	0.149145	1822.670410
4852.712734	0.716796	0.149145	2490.007080
4852.713631	0.094340	0.149145	2574.629639
4852.714518	0.087755	0.149145	2652.468506
4852.715466	0.087843	0.149145	2735.743652
4852.716366	0.087898	0.149145	2814.851807
4852.717265	0.087850	0.149145	2893.829346
4852.718157	0.087850	0.149145	2972.191895
4852.719109	0.087795	0.149145	3055.773193
4852.720014	0.087913	0.149145	3135.333984
4852.720911	0.087722	0.149145	3214.020752
4852.721840	0.087986	0.149145	3295.759521
4853.711886	1.061202	0.156581	535.907227
4853.712808	1.478082	0.156581	1898.699097
4853.713717	0.678981	0.156581	2515.892578
4853.714604	0.093395	0.156581	2598.733643
4853.715541	0.087781	0.156581	2680.984131
4853.716451	0.087686	0.156581	2760.778076
4853.717350	0.087828	0.156581	2839.735840
4853.718281	0.087759	0.156581	2921.439209
4853.719193	0.087902	0.156581	3001.605469
4853.720101	0.087667	0.156581	3081.207275
4853.720998	0.087814	0.156581	3159.976074
4853.721944	0.087957	0.156581	3243.182861
4853.722852	0.087817	0.156581	3322.921143
4854.780363	0.994713	0.150498	436.679047
4854.781259	1.472732	0.150498	1756.246948
4854.782227	0.740548	0.150498	2473.097412
4854.783139	0.094497	0.150498	2559.278809
4854.784027	0.087810	0.150498	2637.254150
4854.784960	0.087927	0.150498	2719.290283
4854.785864	0.087916	0.150498	2798.766602
4854.786763	0.087722	0.150498	2877.628906
4854.787651	0.087861	0.150498	2955.649658
4854.788592	0.087850	0.150498	3038.316895
4854.789497	0.087740	0.150498	3117.721924
4854.790401	0.087814	0.150498	3197.105469
4854.791288	0.087726	0.150498	3274.918213
4855.783880	0.989161	0.157777	429.296051
4855.784818	1.473021	0.157777	1810.989868
4855.785737	0.746246	0.157777	2496.790283
4855.786632	0.095394	0.157777	2582.168213
4855.787519	0.087678	0.157777	2659.938721
4855.788481	0.087843	0.157777	2744.443604
4855.789381	0.087927	0.157777	2823.578125
4855.790274	0.087828	0.157777	2902.008789
4855.791159	0.087902	0.157777	2979.801758
4855.792102	0.087986	0.157777	3062.772461
4855.793011	0.087825	0.157777	3142.605225
4855.793905	0.087839	0.157777	3221.133545
4855.794830	0.087975	0.157777	3302.510254
4856.849363	1.003066	0.149435	443.355347
4856.850267	1.473611	0.149435	1775.499634
4856.851166	0.811820	0.149435	2505.325928
4856.852123	0.095032	0.149435	2596.271240
4856.853039	0.087737	0.149435	2676.638184
4856.853940	0.087748	0.149435	2755.698975
4856.854824	0.087872	0.149435	2833.378174
4856.855765	0.087880	0.149435	2916.072998
4856.856667	0.087719	0.149435	2995.195068
4856.857561	0.087792	0.149435	3073.680908
4856.858504	0.087957	0.149435	3156.624023
4856.859423	0.087880	0.149435	3237.385498
4856.860328	0.087828	0.149435	3316.870117
4857.856969	0.990886	0.156424	430.044647
4857.857916	1.473201	0.156424	1825.165771
4857.858846	0.718019	0.156424	2492.923340
4857.859749	0.094047	0.156424	2577.847412
4857.860640	0.087708	0.156424	2655.994873
4857.861607	0.088048	0.156424	2741.137451
4857.862502	0.087942	0.156424	2819.845459
4857.863406	0.087825	0.156424	2899.239014
4857.864293	0.087986	0.156424	2977.282471
4857.865233	0.087935	0.156424	3059.940918
4857.866135	0.087913	0.156424	3139.238037
4857.867032	0.087795	0.156424	3217.990479
4857.867968	0.087858	0.156424	3300.225342
4858.918864	1.014997	0.150152	452.688873
4858.919848	1.477108	0.150152	1906.163208
4858.920776	0.648973	0.150152	2508.410400
4858.921662	0.092681	0.150152	2590.525391
4858.922609	0.087854	0.150152	2673.723145
4858.923509	0.087814	0.150152	2752.755371
4858.924395	0.087832	0.150152	2830.574463
4858.925332	0.087905	0.150152	2912.941650
4858.926251	0.087792	0.150152	2993.622314
4858.927153	0.087847	0.150152	3072.860107
4858.928039	0.087854	0.150152	3150.698730
4858.928977	0.087832	0.150152	3233.085205
4858.929878	0.087700	0.150152	3312.103027
4859.929055	1.020575	0.156774	467.423309
4859.929960	1.474775	0.156774	1802.095093
4859.930877	0.753988	0.156774	2493.502197
4859.931813	0.093614	0.156774	2581.125488
4859.932725	0.087656	0.156774	2661.067871
4859.933624	0.087759	0.156774	2739.963135
4859.934550	0.087964	0.156774	2821.417725
4859.935457	0.087887	0.156774	2901.131104
4859.936360	0.087861	0.156774	2980.469971
4859.937252	0.087927	0.156774	3058.901123
4859.938193	0.087909	0.156774	3141.623535
4859.939102	0.087821	0.156774	3221.452881
4859.939990	0.087924	0.156774	3299.529053
4860.989398	1.014983	0.150869	456.742310
4860.990301	1.474061	0.150869	1787.819580
4860.991269	0.706000	0.150869	2471.227295
4860.992171	0.093658	0.150869	2555.707275
4860.993071	0.087715	0.150869	2634.650635
4860.993957	0.087836	0.150869	2712.473145
4860.994908	0.087979	0.150869	2796.140625
4860.995810	0.087792	0.150869	2875.328857
4860.996705	0.087803	0.150869	2953.912354
4860.997649	0.087927	0.150869	3036.915771
4860.998545	0.087887	0.150869	3115.662598
4860.999450	0.087803	0.150869	3195.124023
4861.000342	0.087792	0.150869	3273.434326
4862.000586	1.001349	0.157040	438.590790
4862.001545	1.476628	0.157040	1854.677490
4862.002480	0.679574	0.157040	2490.079102
4862.003379	0.093036	0.157040	2573.718262
4862.004269	0.087762	0.157040	2651.826904
4862.005224	0.087927	0.157040	2735.797363
4862.006129	0.087748	0.157040	2815.209229
4862.007023	0.087777	0.157040	2893.681885
4862.007957	0.087938	0.157040	2975.816162
4862.008864	0.087795	0.157040	3055.446533
4862.009759	0.087788	0.157040	3134.016846
4862.010648	0.087993	0.157040	3212.242676
4862.011584	0.087898	0.157040	3294.515137
4863.059418	1.005216	0.151271	449.331604
4863.060311	1.472996	0.151271	1764.716797
4863.061284	0.722582	0.151271	2467.788818
4863.062190	0.094102	0.151271	2553.044922
4863.063080	0.087737	0.151271	2631.130615
4863.064013	0.087869	0.151271	2713.112061
4863.064921	0.087883	0.151271	2792.910156
4863.065826	0.087686	0.151271	2872.265625
4863.066728	0.087755	0.151271	2951.420654
4863.067665	0.087832	0.151271	3033.719238
4863.068564	0.087806	0.151271	3112.657227
4863.069464	0.087795	0.151271	3191.673096
4863.070350	0.087957	0.151271	3269.602539
4864.072189	1.049674	0.157173	514.340332
4864.073107	1.477211	0.157173	1870.419800
4864.074039	0.667749	0.157173	2492.761719
4864.074927	0.093138	0.157173	2575.468750
4864.075871	0.087766	0.157173	2658.320068
4864.076789	0.087858	0.157173	2738.973389
4864.077677	0.087872	0.157173	2817.003906
4864.078625	0.087865	0.157173	2900.299805
4864.079521	0.087909	0.157173	2979.066162
4864.080436	0.087891	0.157173	3059.486084
4864.081330	0.087850	0.157173	3138.024414
4864.082268	0.087773	0.157173	3220.355957
4864.083178	0.087792	0.157173	3300.246338
4865.129934	0.990689	0.151872	434.912262
4865.130882	1.476156	0.151872	1834.308105
4865.131809	0.706622	0.151872	2489.346924
4865.132718	0.093475	0.151872	2574.315918
4865.133608	0.087671	0.151872	2652.343018
4865.134559	0.087854	0.151872	2735.892090
4865.135468	0.087858	0.151872	2815.754639
4865.136365	0.087843	0.151872	2894.549805
4865.137309	0.087722	0.151872	2977.359619
4865.138204	0.087861	0.151872	3055.995605
4865.139103	0.087839	0.151872	3134.963135
4865.139987	0.087942	0.151872	3212.703857
4865.140928	0.087949	0.151872	3295.464111
4866.143175	0.988795	0.156951	431.114655
4866.144137	1.476987	0.156951	1851.976318
4866.145068	0.688942	0.156951	2493.380859
4866.145975	0.093153	0.156951	2577.870605
4866.146868	0.087784	0.156951	2656.262207
4866.147821	0.087993	0.156951	2740.119629
4866.148731	0.087766	0.156951	2819.986816
4866.149627	0.087880	0.156951	2898.727051
4866.150564	0.087949	0.156951	2981.135498
4866.151466	0.087993	0.156951	3060.505371
4866.152362	0.087872	0.156951	3139.239014
4866.153248	0.087880	0.156951	3217.100342
4866.154183	0.087953	0.156951	3299.336182
4867.200459	1.011486	0.152303	444.042175
4867.201435	1.478046	0.152303	1886.614746
4867.202350	0.683811	0.152303	2512.301758
4867.203240	0.093358	0.152303	2595.390625
4867.204184	0.087916	0.152303	2678.383545
4867.205093	0.087865	0.152303	2758.252930
4867.205984	0.087795	0.152303	2836.478516
4867.206870	0.087814	0.152303	2914.281494
4867.207811	0.087946	0.152303	2997.038330
4867.208722	0.087854	0.152303	3077.073242
4867.209620	0.087832	0.152303	3155.946289
4867.210510	0.087799	0.152303	3234.087402
4867.211461	0.087935	0.152303	3317.713135
4868.214744	1.012841	0.157157	455.778290
4868.215645	1.474025	0.157157	1783.874512
4868.216540	0.795070	0.157157	2495.461914
4868.217512	0.093618	0.157157	2586.458740
4868.218416	0.087700	0.157157	2665.739746
4868.219313	0.087942	0.157157	2744.623535
4868.220258	0.087975	0.157157	2827.759766
4868.221162	0.088022	0.157157	2907.332031
4868.222058	0.087744	0.157157	2985.950684
4868.222945	0.087836	0.157157	3063.860840
4868.223881	0.087865	0.157157	3146.102539
4868.224788	0.087920	0.157157	3225.845947
4868.225698	0.087792	0.157157	3305.736328
4869.271520	1.009017	0.153942	451.030762
4869.272426	1.474167	0.153942	1786.626465
4869.273325	0.795004	0.153942	2501.334717
4869.274257	0.097284	0.153942	2592.003418
4869.275187	0.087565	0.153942	2673.438477
4869.276087	0.087836	0.153942	2752.490723
4869.276976	0.087770	0.153942	2830.518066
4869.277938	0.087825	0.153942	2915.005371
4869.278846	0.087814	0.153942	2994.740234
4869.279760	0.087806	0.153942	3074.995361
4869.280647	0.087913	0.153942	3152.973877
4869.281597	0.087762	0.153942	3236.348145
4869.282492	0.087722	0.153942	3314.859375
4870.285771	0.991945	0.158482	434.471741
4870.286716	1.473475	0.158482	1826.906006
4870.287638	0.721875	0.158482	2492.474854
4870.288537	0.094307	0.158482	2577.256592
4870.289426	0.087678	0.158482	2655.202637
4870.290360	0.087810	0.158482	2737.217285
4870.291262	0.087865	0.158482	2816.471436
4870.292169	0.087810	0.158482	2896.115234
4870.293056	0.087839	0.158482	2974.028809
4870.294002	0.087909	0.158482	3057.190674
4870.294906	0.087792	0.158482	3136.554443
4870.295795	0.087821	0.158482	3214.627441
4870.296731	0.087872	0.158482	3296.875977
4871.342035	1.004037	0.152710	444.788361
4871.342929	1.472999	0.152710	1761.649780
4871.343896	0.729119	0.152710	2466.707520
4871.344804	0.094471	0.152710	2552.487549
4871.345699	0.087773	0.152710	2631.044678
4871.346634	0.087953	0.152710	2713.280518
4871.347538	0.087905	0.152710	2792.746826
4871.348434	0.087821	0.152710	2871.434570
4871.349316	0.087792	0.152710	2948.866943
4871.350249	0.087905	0.152710	3030.882568
4871.351158	0.087814	0.152710	3110.705322
4871.352057	0.087729	0.152710	3189.574219
4871.352944	0.087755	0.152710	3267.413086
4872.356298	0.999064	0.158422	438.588959
4872.357252	1.476504	0.158422	1847.173828
4872.358176	0.706714	0.158422	2500.177490
4872.359076	0.093585	0.158422	2584.404297
4872.359962	0.087854	0.158422	2662.242920
4872.360905	0.087850	0.158422	2745.085693
4872.361803	0.087733	0.158422	2823.870117
4872.362692	0.087686	0.158422	2901.822510
4872.363630	0.087784	0.158422	2984.164307
4872.364533	0.087795	0.158422	3063.443604
4872.365434	0.087755	0.158422	3142.510986
4872.366322	0.087803	0.158422	3220.479736
4872.367249	0.087872	0.158422	3301.937500
4873.413585	1.008552	0.152802	447.797180
4873.414504	1.474387	0.152802	1802.759033
4873.415414	0.766553	0.152802	2500.322021
4873.416352	0.095988	0.152802	2590.358398
4873.417257	0.087773	0.152802	2669.793457
4873.418150	0.087839	0.152802	2748.233887
4873.419034	0.087806	0.152802	2825.854736
4873.419973	0.087909	0.152802	2908.401123
4873.420881	0.087902	0.152802	2988.215820
4873.421784	0.087817	0.152802	3067.514893
4873.422672	0.087795	0.152802	3145.477295
4873.423628	0.087854	0.152802	3229.465820
4873.424528	0.087740	0.152802	3308.432129
4874.427343	1.002828	0.158466	444.252960
4874.428243	1.473647	0.158466	1770.535645
4874.429140	0.814834	0.158466	2501.441650
4874.430084	0.095204	0.158466	2591.313965
4874.430999	0.087920	0.158466	2671.760742
4874.431897	0.087942	0.158466	2750.732666
4874.432808	0.087759	0.158466	2830.680908
4874.433729	0.087993	0.158466	2911.722656
4874.434632	0.087876	0.158466	2991.074707
4874.435525	0.087905	0.158466	3069.574219
4874.436457	0.087909	0.158466	3151.505371
4874.437357	0.087832	0.158466	3230.554199
4874.438259	0.087766	0.158466	3309.719238
4875.484632	1.010687	0.153515	451.777191
4875.485535	1.473637	0.153515	1782.470947
4875.486437	0.800947	0.153515	2504.925293
4875.487401	0.093871	0.153515	2595.416748
4875.488314	0.087708	0.153515	2675.493652
4875.489233	0.087788	0.153515	2756.170898
4875.490125	0.087913	0.153515	2834.588867
4875.491071	0.087858	0.153515	2917.702148
4875.491967	0.087861	0.153515	2996.425781
4875.492851	0.087847	0.153515	3074.082275
4875.493786	0.087825	0.153515	3156.198486
4875.494687	0.087777	0.153515	3235.285645
4875.495605	0.087700	0.153515	3315.794434
4876.497372	1.011526	0.159014	454.175110
4876.498275	1.474036	0.159014	1785.229248
4876.499186	0.776287	0.159014	2492.426270
4876.500122	0.094614	0.159014	2580.985107
4876.501028	0.087649	0.159014	2660.395020
4876.501924	0.087872	0.159014	2739.128662
4876.502854	0.087825	0.159014	2820.805664
4876.503763	0.087898	0.159014	2900.704834
4876.504668	0.087810	0.159014	2980.172852
4876.505555	0.087806	0.159014	3058.057129
4876.506501	0.087968	0.159014	3141.274414
4876.507411	0.087843	0.159014	3221.211670
4876.508310	0.087909	0.159014	3300.241699
4877.556232	1.069310	0.152794	535.724487
4877.557153	1.478112	0.152794	1897.065186
4877.558065	0.693596	0.152794	2529.625000
4877.558951	0.094069	0.152794	2612.969727
4877.559899	0.087803	0.152794	2696.206787
4877.560803	0.087938	0.152794	2775.702881
4877.561693	0.087836	0.152794	2853.876709
4877.562629	0.087905	0.152794	2936.156006
4877.563527	0.087920	0.152794	3015.108154
4877.564430	0.087861	0.152794	3094.447021
4877.565316	0.087931	0.152794	3172.353760
4877.566263	0.087916	0.152794	3255.610352
4877.567160	0.087708	0.152794	3334.283936
4878.566877	1.011910	0.159360	447.264404
4878.567790	1.474493	0.159360	1793.476807
4878.568692	0.782391	0.159360	2499.193848
4878.569629	0.096793	0.159360	2589.889160
4878.570545	0.087865	0.159360	2670.373535
4878.571443	0.087817	0.159360	2749.233643
4878.572331	0.087891	0.159360	2827.280518
4878.573278	0.087806	0.159360	2910.433105
4878.574190	0.087792	0.159360	2990.499268
4878.575085	0.087880	0.159360	3069.151611
4878.575972	0.087843	0.159360	3147.068359
4878.576897	0.087880	0.159360	3228.356934
4878.577803	0.087773	0.159360	3307.879639
4879.628226	0.991293	0.153733	429.229767
4879.629190	1.474193	0.153733	1850.351929
4879.630116	0.699759	0.153733	2498.329102
4879.631015	0.093765	0.153733	2582.623535
4879.631902	0.087711	0.153733	2660.423340
4879.632860	0.087869	0.153733	2744.601562
4879.633764	0.087832	0.153733	2824.001709
4879.634659	0.087850	0.153733	2902.627686
4879.635560	0.087770	0.153733	2981.708252
4879.636472	0.087931	0.153733	3061.901123
4879.637383	0.087704	0.153733	3141.799316
4879.638276	0.087755	0.153733	3220.164551
4879.639211	0.087942	0.153733	3302.390137
4880.636887	1.014261	0.159763	456.417664
4880.637791	1.474039	0.159763	1788.949219
4880.638686	0.783219	0.159763	2489.930176
4880.639637	0.094219	0.159763	2579.532227
4880.640547	0.087766	0.159763	2659.399414
4880.641445	0.087788	0.159763	2738.233154
4880.642385	0.087891	0.159763	2820.850342
4880.643293	0.087858	0.159763	2900.625000
4880.644191	0.087854	0.159763	2979.517822
4880.645076	0.087887	0.159763	3057.297852
4880.646024	0.087938	0.159763	3140.663330
4880.646927	0.087744	0.159763	3219.896240
4880.647823	0.087935	0.159763	3298.685547
4881.700815	0.997148	0.152528	439.742462
4881.701710	1.472556	0.152528	1757.680176
4881.702696	0.703916	0.152528	2451.741455
4881.703601	0.093896	0.152528	2536.717773
4881.704496	0.087784	0.152528	2615.284912
4881.705428	0.087894	0.152528	2697.202393
4881.706340	0.087858	0.152528	2777.328613
4881.707244	0.087883	0.152528	2856.775146
4881.708136	0.087832	0.152528	2935.121338
4881.709065	0.087920	0.152528	3016.798828
4881.709972	0.087792	0.152528	3096.426025
4881.710872	0.087770	0.152528	3175.418945
4881.711763	0.087729	0.152528	3253.585937
4882.705886	1.014177	0.160512	453.337219
4882.706802	1.474797	0.160512	1804.251709
4882.707703	0.782128	0.160512	2508.948730
4882.708619	0.096713	0.160512	2597.537598
4882.709544	0.087781	0.160512	2678.734863
4882.710445	0.087828	0.160512	2757.868164
4882.711337	0.087817	0.160512	2836.201172
4882.712260	0.087909	0.160512	2917.341064
4882.713165	0.087883	0.160512	2996.875488
4882.714064	0.087803	0.160512	3075.810059
4882.714950	0.087876	0.160512	3153.668213
4882.715904	0.088066	0.160512	3237.683594
4882.716802	0.087858	0.160512	3316.579834
4883.773409	1.014609	0.153527	456.574188
4883.774311	1.473838	0.153527	1785.975952
4883.775209	0.799127	0.153527	2503.592285
4883.776160	0.097496	0.153527	2596.311279
4883.777079	0.087704	0.153527	2676.911133
4883.777979	0.087825	0.153527	2755.953369
4883.778866	0.087953	0.153527	2833.967529
4883.779815	0.087821	0.153527	2917.309814
4883.780721	0.087821	0.153527	2996.875732
4883.781638	0.087876	0.153527	3077.458008
4883.782528	0.087843	0.153527	3155.638184
4883.783477	0.087766	0.153527	3238.928223
4883.784375	0.087825	0.153527	3317.794922
4884.774857	1.004290	0.161999	439.878815
4884.775844	1.478207	0.161999	1898.868896
4884.776770	0.659897	0.161999	2509.934082
4884.777668	0.092446	0.161999	2592.950928
4884.778602	0.087766	0.161999	2674.924561
4884.779512	0.087979	0.161999	2754.985107
4884.780415	0.087759	0.161999	2834.231201
4884.781300	0.087814	0.161999	2911.946289
4884.782241	0.087803	0.161999	2994.568604
4884.783134	0.087850	0.161999	3073.019043
4884.784038	0.087825	0.161999	3152.412598
4884.784927	0.087773	0.161999	3230.443115
4884.785874	0.087927	0.161999	3313.710205
4885.845481	1.029049	0.153475	472.333496
4885.846394	1.475684	0.153475	1819.632568
4885.847311	0.743577	0.153475	2501.492432
4885.848198	0.095629	0.153475	2586.314941
4885.849150	0.087938	0.153475	2670.032227
4885.850054	0.087832	0.153475	2749.432373
4885.850942	0.087883	0.153475	2827.472656
4885.851881	0.087964	0.153475	2910.070801
4885.852777	0.087883	0.153475	2988.814209
4885.853683	0.087913	0.153475	3068.463135
4885.854573	0.087854	0.153475	3146.653320
4885.855506	0.087909	0.153475	3228.672363
4885.856411	0.087909	0.153475	3308.229980
4886.845389	1.003557	0.162575	443.572235
4886.846353	1.477324	0.162575	1867.712891
4886.847262	0.712570	0.162575	2515.438721
4886.848150	0.094277	0.162575	2599.156982
4886.849059	0.087784	0.162575	2678.953125
4886.849996	0.087744	0.162575	2761.169434
4886.850892	0.087869	0.162575	2839.899658
4886.851784	0.087876	0.162575	2918.284912
4886.852718	0.087902	0.162575	3000.385010
4886.853628	0.087821	0.162575	3080.302246
4886.854544	0.087843	0.162575	3160.766357
4886.855432	0.087832	0.162575	3238.761230
4886.856380	0.087876	0.162575	3322.067627
4887.917012	1.000349	0.152274	442.154266
4887.917907	1.473010	0.152274	1760.498413
4887.918866	0.741204	0.152274	2471.312744
4887.919775	0.094794	0.152274	2557.480225
4887.920669	0.087711	0.152274	2635.894043
4887.921602	0.087799	0.152274	2717.810547
4887.922505	0.087880	0.152274	2797.165771
4887.923408	0.087733	0.152274	2876.388916
4887.924297	0.087733	0.152274	2954.383789
4887.925233	0.087759	0.152274	3036.526123
4887.926140	0.087887	0.152274	3116.239502
4887.927047	0.087697	0.152274	3195.780273
4887.927937	0.087821	0.152274	3273.940918
4888.915928	1.006846	0.161262	452.073730
4888.916824	1.473347	0.161262	1772.192871
4888.917721	0.809703	0.161262	2498.496826
4888.918659	0.095424	0.161262	2588.004150
4888.919571	0.087744	0.161262	2668.026855
4888.920463	0.087719	0.161262	2746.271729
4888.921380	0.087953	0.161262	2826.924561
4888.922289	0.087832	0.161262	2906.763916
4888.923198	0.087858	0.161262	2986.626465
4888.924092	0.087839	0.161262	3065.154785
4888.925033	0.087909	0.161262	3147.877197
4888.925940	0.087975	0.161262	3227.670410
4888.926833	0.087839	0.161262	3306.110840
4889.988103	1.035278	0.152851	515.568604
4889.989023	1.478324	0.152851	1875.626587
4889.989935	0.685148	0.152851	2500.481201
4889.990824	0.093508	0.152851	2583.610107
4889.991796	0.087803	0.152851	2668.954346
4889.992696	0.087770	0.152851	2747.947266
4889.993594	0.087759	0.152851	2826.754639
4889.994483	0.087898	0.152851	2904.895996
4889.995415	0.087806	0.152851	2986.731445
4889.996322	0.087744	0.152851	3066.315430
4889.997218	0.087913	0.152851	3145.085205
4889.998157	0.087784	0.152851	3227.514648
4889.999063	0.087876	0.152851	3307.130371
4890.986955	0.995292	0.162478	434.942505
4890.987898	1.473289	0.162478	1824.253540
4890.988821	0.732759	0.162478	2500.589844
4890.989717	0.094955	0.162478	2585.669434
4890.990600	0.087803	0.162478	2663.199219
4890.991526	0.087920	0.162478	2744.613037
4890.992436	0.087861	0.162478	2824.566895
4890.993342	0.087814	0.162478	2904.126221
4890.994233	0.087792	0.162478	2982.348633
4890.995179	0.087924	0.162478	3065.524414
4890.996092	0.087949	0.162478	3145.822021
4890.996989	0.087850	0.162478	3224.623779
4890.997916	0.087880	0.162478	3306.088135
4892.058605	1.035597	0.153817	480.516937
4892.059534	1.476427	0.153817	1852.117554
4892.060443	0.727848	0.153817	2513.731445
4892.061330	0.094962	0.153817	2597.962891
4892.062281	0.087784	0.153817	2681.445801
4892.063179	0.087631	0.153817	2760.138184
4892.064072	0.087755	0.153817	2838.503418
4892.065007	0.087898	0.153817	2920.687988
4892.065924	0.087770	0.153817	3001.172852
4892.066828	0.087759	0.153817	3080.506836
4892.067714	0.087719	0.153817	3158.225342
4892.068657	0.087946	0.153817	3241.157959
4892.069563	0.087792	0.153817	3320.697266
4893.058534	1.015902	0.163095	460.203674
4893.059461	1.475149	0.163095	1827.666748
4893.060358	0.751490	0.163095	2501.753662
4893.061304	0.094003	0.163095	2590.680176
4893.062205	0.087806	0.163095	2669.793701
4893.063106	0.087843	0.163095	2748.940186
4893.063995	0.087722	0.163095	2826.925293
4893.064945	0.087920	0.163095	2910.449219
4893.065855	0.087810	0.163095	2990.356445
4893.066752	0.087836	0.163095	3069.145020
4893.067680	0.087931	0.163095	3150.744873
4893.068583	0.087913	0.163095	3230.129883
4893.069496	0.087682	0.163095	3310.183350
4894.129124	1.018250	0.153543	464.321777
4894.130030	1.474428	0.153543	1800.153198
4894.130926	0.784691	0.153543	2503.236328
4894.131870	0.096456	0.153543	2594.291016
4894.132786	0.087697	0.153543	2674.621094
4894.133695	0.087755	0.153543	2754.390625
4894.134587	0.087865	0.153543	2832.766113
4894.135530	0.087777	0.153543	2915.540039
4894.136433	0.087836	0.153543	2994.855713
4894.137352	0.087817	0.153543	3075.559814
4894.138238	0.087799	0.153543	3153.349854
4894.139191	0.087733	0.153543	3236.959473
4894.140087	0.087737	0.153543	3315.571777
4895.130051	0.991040	0.162692	429.120331
4895.131009	1.474050	0.162692	1841.260498
4895.131942	0.697416	0.162692	2491.949463
4895.132840	0.093746	0.162692	2576.133789
4895.133730	0.087788	0.162692	2654.265137
4895.134684	0.087909	0.162692	2738.130371
4895.135590	0.087920	0.162692	2817.785889
4895.136487	0.087880	0.162692	2896.614014
4895.137403	0.087806	0.162692	2977.044678
4895.138320	0.087854	0.162692	3057.606689
4895.139227	0.087821	0.162692	3137.260254
4895.140115	0.087810	0.162692	3215.235596
4895.141045	0.087927	0.162692	3297.007812
4896.198603	1.003143	0.153902	443.389343
4896.199506	1.473746	0.153902	1774.182373
4896.200404	0.799596	0.153902	2492.219482
4896.201365	0.094343	0.153902	2582.883301
4896.202278	0.087843	0.153902	2663.083984
4896.203177	0.087902	0.153902	2742.107422
4896.204122	0.087902	0.153902	2825.174561
4896.205023	0.087942	0.153902	2904.410156
4896.205920	0.087825	0.153902	2983.188965
4896.206805	0.087861	0.153902	3060.946289
4896.207740	0.088019	0.153902	3143.243896
4896.208645	0.087759	0.153902	3222.665527
4896.209552	0.087821	0.153902	3302.319336
4897.202642	1.002883	0.163074	450.294617
4897.203540	1.473919	0.163074	1773.873535
4897.204494	0.744734	0.163074	2484.349609
4897.205406	0.094058	0.163074	2570.130127
4897.206305	0.087788	0.163074	2649.051514
4897.207194	0.087828	0.163074	2727.130859
4897.208117	0.087979	0.163074	2808.334961
4897.209035	0.087806	0.163074	2888.941162
4897.209932	0.087876	0.163074	2967.765869
4897.210821	0.087788	0.163074	3045.809570
4897.211758	0.087935	0.163074	3128.204346
4897.212664	0.087766	0.163074	3207.720459
4897.213557	0.087803	0.163074	3286.128418
4898.268114	1.004597	0.154498	446.041138
4898.269016	1.473461	0.154498	1775.102783
4898.269917	0.815284	0.154498	2509.674072
4898.270889	0.094556	0.154498	2601.582275
4898.271787	0.087832	0.154498	2680.455322
4898.272686	0.087916	0.154498	2759.491943
4898.273573	0.087814	0.154498	2837.382812
4898.274501	0.088033	0.154498	2919.077881
4898.275408	0.087814	0.154498	2998.724854
4898.276303	0.087858	0.154498	3077.357422
4898.277225	0.087806	0.154498	3158.314941
4898.278132	0.087821	0.154498	3237.968750
4898.279031	0.087847	0.154498	3316.942871
4899.274210	1.024105	0.162889	466.991974
4899.275126	1.475640	0.162889	1818.677856
4899.276038	0.750886	0.162889	2503.486084
4899.276955	0.095530	0.162889	2591.086914
4899.277877	0.087931	0.162889	2672.159180
4899.278777	0.087902	0.162889	2751.270508
4899.279676	0.087891	0.162889	2830.284180
4899.280604	0.087887	0.162889	2911.843262
4899.281515	0.087953	0.162889	2991.968262
4899.282415	0.087916	0.162889	3071.092773
4899.283302	0.087935	0.162889	3149.090820
4899.284240	0.087858	0.162889	3231.501221
4899.285146	0.087876	0.162889	3311.116943
4900.338152	1.038369	0.154804	484.918396
4900.339061	1.475933	0.154804	1826.541016
4900.339965	0.749846	0.154804	2504.401855
4900.340918	0.093003	0.154804	2593.033691
4900.341830	0.087733	0.154804	2673.046387
4900.342724	0.087858	0.154804	2751.591064
4900.343646	0.087821	0.154804	2832.562012
4900.344548	0.087920	0.154804	2911.865723
4900.345458	0.087799	0.154804	2991.762939
4900.346346	0.087854	0.154804	3069.777344
4900.347280	0.087883	0.154804	3151.860352
4900.348184	0.087968	0.154804	3231.383057
4900.349084	0.087777	0.154804	3310.382324
4901.346253	0.990894	0.162941	435.002258
4901.347195	1.475504	0.162941	1824.927002
4901.348129	0.711193	0.162941	2489.180908
4901.349031	0.093783	0.162941	2573.773193
4901.349920	0.087715	0.162941	2651.751709
4901.350870	0.087905	0.162941	2735.261719
4901.351775	0.087737	0.162941	2814.663574
4901.352669	0.087858	0.162941	2893.208252
4901.353618	0.087784	0.162941	2976.515625
4901.354517	0.087861	0.162941	3055.502930
4901.355419	0.087715	0.162941	3134.621826
4901.356309	0.087803	0.162941	3212.766357
4901.357236	0.087916	0.162941	3294.264648
4902.408669	1.003847	0.155139	452.734772
4902.409579	1.474490	0.155139	1794.520386
4902.410477	0.786779	0.155139	2501.047607
4902.411417	0.096833	0.155139	2592.071045
4902.412340	0.087645	0.155139	2672.967529
4902.413259	0.087847	0.155139	2753.698730
4902.414147	0.087902	0.155139	2831.755371
4902.415087	0.087755	0.155139	2914.245117
4902.415997	0.087872	0.155139	2994.208984
4902.416923	0.087854	0.155139	3075.561768
4902.417817	0.087759	0.155139	3154.018066
4902.418764	0.087777	0.155139	3237.143066
4902.419686	0.087894	0.155139	3318.181641
4903.417317	1.013419	0.162938	461.105713
4903.418226	1.474724	0.162938	1801.630005
4903.419138	0.758306	0.162938	2493.204834
4903.420076	0.095643	0.162938	2582.918213
4903.420985	0.087810	0.162938	2662.737549
4903.421887	0.087751	0.162938	2741.889404
4903.422776	0.087806	0.162938	2819.949219
4903.423724	0.087817	0.162938	2903.200195
4903.424621	0.087825	0.162938	2981.979004
4903.425518	0.087898	0.162938	3060.823486
4903.426403	0.087587	0.162938	3138.337646
4903.427354	0.087872	0.162938	3221.904297
4903.428255	0.087715	0.162938	3300.935303
4904.478663	0.994969	0.154929	435.796631
4904.479555	1.472102	0.154929	1748.911621
4904.480551	0.692721	0.154929	2438.861816
4904.481457	0.093424	0.154929	2523.503906
4904.482357	0.087759	0.154929	2602.486816
4904.483289	0.087894	0.154929	2684.404297
4904.484189	0.087872	0.154929	2763.489502
4904.485085	0.087861	0.154929	2842.213379
4904.485972	0.087817	0.154929	2920.107422
4904.486901	0.087894	0.154929	3001.761230
4904.487804	0.087847	0.154929	3081.086670
4904.488706	0.087762	0.154929	3160.248291
4904.489593	0.087847	0.154929	3238.168213
4905.488841	0.990941	0.163795	431.059448
4905.489798	1.472992	0.163795	1840.712769
4905.490728	0.699950	0.163795	2491.666260
4905.491624	0.093878	0.163795	2575.781006
4905.492513	0.087762	0.163795	2653.801758
4905.493469	0.087792	0.163795	2737.730713
4905.494374	0.087828	0.163795	2817.215332
4905.495265	0.087770	0.163795	2895.418213
4905.496154	0.087777	0.163795	2973.452148
4905.497098	0.087832	0.163795	3056.365479
4905.498005	0.087894	0.163795	3136.085693
4905.498903	0.087843	0.163795	3214.968750
4905.499838	0.087806	0.163795	3297.067627
4906.549193	0.996823	0.156247	436.608276
4906.550175	1.478302	0.156247	1888.300903
4906.551094	0.672352	0.156247	2506.192627
4906.551983	0.093186	0.156247	2589.034912
4906.552897	0.087898	0.156247	2669.373535
4906.553818	0.087858	0.156247	2750.290527
4906.554720	0.087839	0.156247	2829.521729
4906.555618	0.087817	0.156247	2908.381836
4906.556553	0.087880	0.156247	2990.549316
4906.557460	0.087898	0.156247	3070.272705
4906.558359	0.087913	0.156247	3149.306152
4906.559247	0.087759	0.156247	3227.235840
4906.560201	0.088011	0.156247	3311.198730
4907.559931	1.055537	0.164021	505.602264
4907.560851	1.476940	0.164021	1864.386841
4907.561768	0.702543	0.164021	2508.618652
4907.562653	0.094270	0.164021	2592.047607
4907.563617	0.087814	0.164021	2676.699951
4907.564529	0.087733	0.164021	2756.712646
4907.565430	0.087949	0.164021	2835.954834
4907.566374	0.087964	0.164021	2918.992676
4907.567280	0.087784	0.164021	2998.525391
4907.568176	0.087825	0.164021	3077.216309
4907.569064	0.087832	0.164021	3155.211182
4907.570015	0.087949	0.164021	3238.850830
4907.570915	0.087777	0.164021	3317.850098
4908.619726	0.995197	0.157503	435.896088
4908.620700	1.477108	0.157503	1874.599487
4908.621621	0.687773	0.157503	2508.038818
4908.622541	0.092794	0.157503	2593.409424
4908.623426	0.087708	0.157503	2671.030518
4908.624377	0.087854	0.157503	2754.579590
4908.625284	0.087795	0.157503	2834.209961
4908.626176	0.087854	0.157503	2912.575684
4908.627111	0.087828	0.157503	2994.695312
4908.628015	0.087880	0.157503	3074.138428
4908.628932	0.087766	0.157503	3154.619873
4908.629822	0.087711	0.157503	3232.682861
4908.630774	0.087858	0.157503	3316.323242
4909.630419	1.008435	0.163175	450.770447
4909.631321	1.473596	0.163175	1779.954346
4909.632217	0.809905	0.163175	2505.628906
4909.633186	0.093849	0.163175	2596.568359
4909.634085	0.087832	0.163175	2675.529297
4909.634985	0.087817	0.163175	2754.564941
4909.635889	0.087847	0.163175	2833.978271
4909.636817	0.087902	0.163175	2915.551025
4909.637726	0.087850	0.163175	2995.406982
4909.638616	0.087821	0.163175	3073.567627
4909.639541	0.087803	0.163175	3154.785156
4909.640443	0.087898	0.163175	3234.069092
4909.641341	0.087825	0.163175	3312.935791
4910.691284	0.995750	0.155670	441.117035
4910.692176	1.472684	0.155670	1754.751587
4910.693138	0.729829	0.155670	2456.847168
4910.694055	0.094102	0.155670	2543.138184
4910.694950	0.087729	0.155670	2621.656006
4910.695877	0.087850	0.155670	2703.093262
4910.696791	0.087946	0.155670	2783.475586
4910.697696	0.087847	0.155670	2862.976807
4910.698593	0.087854	0.155670	2941.781738
4910.699535	0.087898	0.155670	3024.581543
4910.700435	0.087909	0.155670	3103.699463
4910.701332	0.087766	0.155670	3182.425781
4910.702217	0.087854	0.155670	3260.176514
4911.701470	1.009574	0.164633	456.327423
4911.702362	1.473530	0.164633	1770.716431
4911.703330	0.706608	0.164633	2454.712646
4911.704242	0.093472	0.164633	2539.958740
4911.705143	0.087708	0.164633	2618.983154
4911.706030	0.087814	0.164633	2696.874023
4911.706972	0.087894	0.164633	2779.670410
4911.707880	0.087850	0.164633	2859.438477
4911.708770	0.087861	0.164633	2937.635010
4911.709716	0.087971	0.164633	3020.855713
4911.710621	0.087828	0.164633	3100.340332
4911.711514	0.087737	0.164633	3178.689209
4911.712401	0.087825	0.164633	3256.589844
4912.762366	1.017166	0.157181	501.462616
4912.763290	1.477797	0.157181	1866.946655
4912.764218	0.666866	0.157181	2485.798828
4912.765111	0.093029	0.157181	2568.873291
4912.766053	0.087847	0.157181	2651.624756
4912.766946	0.087784	0.157181	2730.016357
4912.767847	0.087839	0.157181	2809.159668
4912.768738	0.087836	0.157181	2887.421387
4912.769682	0.087920	0.157181	2970.417725
4912.770587	0.087836	0.157181	3049.908936
4912.771482	0.087817	0.157181	3128.505371
4912.772413	0.087946	0.157181	3210.382568
4912.773313	0.087935	0.157181	3289.523682
4913.771983	1.004985	0.164754	442.193542
4913.772940	1.476899	0.164754	1855.586182
4913.773869	0.695548	0.164754	2501.750488
4913.774764	0.093545	0.164754	2585.473145
4913.775701	0.087814	0.164754	2667.754639
4913.776598	0.087850	0.164754	2746.556396
4913.777500	0.087839	0.164754	2825.787598
4913.778387	0.087755	0.164754	2903.626465
4913.779332	0.088030	0.164754	2986.814697
4913.780233	0.087828	0.164754	3065.947998
4913.781128	0.087748	0.164754	3144.482178
4913.782015	0.087861	0.164754	3222.415283
4913.782962	0.087814	0.164754	3305.574951
4914.833893	1.019330	0.157044	465.833710
4914.834794	1.474556	0.157044	1794.408325
4914.835695	0.772057	0.157044	2490.031494
4914.836629	0.094512	0.157044	2578.305420
4914.837540	0.087682	0.157044	2658.183594
4914.838431	0.087839	0.157044	2736.448486
4914.839363	0.087891	0.157044	2818.362549
4914.840272	0.087957	0.157044	2898.314941
4914.841172	0.087865	0.157044	2977.393555
4914.842060	0.087894	0.157044	3055.443604
4914.843003	0.087997	0.157044	3138.424561
4914.843915	0.087850	0.157044	3218.544189
4914.844813	0.087806	0.157044	3297.394287
4915.842043	1.013423	0.164561	491.510071
4915.842963	1.476515	0.164561	1849.903809
4915.843874	0.708025	0.164561	2494.914551
4915.844767	0.094102	0.164561	2578.947266
4915.845713	0.087832	0.164561	2662.036377
4915.846618	0.087814	0.164561	2741.507812
4915.847518	0.087861	0.164561	2820.583008
4915.848405	0.087913	0.164561	2898.561523
4915.849351	0.087949	0.164561	2981.761475
4915.850257	0.087759	0.164561	3061.270996
4915.851151	0.087814	0.164561	3139.776367
4915.852093	0.087781	0.164561	3222.465820
4915.852996	0.088004	0.164561	3301.933594
4916.905471	1.042218	0.156569	513.813477
4916.906394	1.477727	0.156569	1877.755493
4916.907307	0.684390	0.156569	2502.603271
4916.908196	0.093596	0.156569	2585.810303
4916.909146	0.087880	0.156569	2669.295898
4916.910056	0.087865	0.156569	2749.252930
4916.910952	0.087817	0.156569	2827.937256
4916.911860	0.087854	0.156569	2907.708740
4916.912784	0.088026	0.156569	2989.044922
4916.913691	0.087759	0.156569	3068.642090
4916.914578	0.087825	0.156569	3146.542725
4916.915508	0.087887	0.156569	3228.277588
4916.916415	0.087861	0.156569	3307.967773
4917.912573	1.055874	0.165620	514.210693
4917.913502	1.477529	0.165620	1886.835449
4917.914411	0.689524	0.165620	2513.612793
4917.915301	0.093684	0.165620	2596.991699
4917.916249	0.087814	0.165620	2680.239014
4917.917148	0.087825	0.165620	2759.193359
4917.918042	0.087850	0.165620	2837.731445
4917.918971	0.087784	0.165620	2919.283203
4917.919877	0.087839	0.165620	2998.865723
4917.920771	0.087664	0.165620	3077.237061
4917.921661	0.087737	0.165620	3155.322754
4917.922595	0.087843	0.165620	3237.368164
4917.923510	0.087755	0.165620	3317.664062
4918.977486	1.001188	0.156150	444.527374
4918.978452	1.473311	0.156150	1867.745361
4918.979386	0.677285	0.156150	2500.329590
4918.980277	0.093113	0.156150	2583.292969
4918.981167	0.087762	0.156150	2661.401611
4918.982101	0.087832	0.156150	2743.436768
4918.983008	0.087898	0.156150	2823.160156
4918.983913	0.087902	0.156150	2902.711182
4918.984801	0.087828	0.156150	2980.702881
4918.985754	0.087905	0.156150	3064.476562
4918.986665	0.087788	0.156150	3144.451416
4918.987559	0.087795	0.156150	3222.940430
4918.988499	0.087946	0.156150	3305.609375
4919.981537	1.008303	0.166309	464.827759
4919.982484	1.477339	0.166309	1863.867554
4919.983417	0.675055	0.166309	2493.693848
4919.984316	0.092904	0.166309	2577.214600
4919.985245	0.087799	0.166309	2658.780029
4919.986148	0.087898	0.166309	2738.151855
4919.987050	0.087773	0.166309	2817.323486
4919.987942	0.087726	0.166309	2895.574951
4919.988895	0.087858	0.166309	2979.303223
4919.989802	0.087704	0.166309	3058.850586
4919.990694	0.087843	0.166309	3137.206543
4919.991611	0.087902	0.166309	3217.812256
4919.992529	0.087894	0.166309	3298.499268
4921.050074	1.018202	0.156025	463.281830
4921.050983	1.474563	0.156025	1803.659668
4921.051942	0.700587	0.156025	2475.522705
4921.052852	0.093376	0.156025	2560.495361
4921.053759	0.087737	0.156025	2640.072754
4921.054647	0.087894	0.156025	2718.122803
4921.055606	0.087942	0.156025	2802.458984
4921.056513	0.087803	0.156025	2882.096191
4921.057403	0.087836	0.156025	2960.270020
4921.058344	0.087902	0.156025	3042.985352
4921.059239	0.087887	0.156025	3121.644287
4921.060128	0.087751	0.156025	3199.655273
4921.061014	0.087722	0.156025	3277.377197
4922.052061	1.014803	0.165850	452.602325
4922.052984	1.475127	0.165850	1814.144531
4922.053896	0.750945	0.165850	2499.006348
4922.054840	0.095548	0.165850	2589.203857
4922.055743	0.087832	0.165850	2668.516113
4922.056649	0.087810	0.165850	2748.072021
4922.057534	0.087729	0.165850	2825.712646
4922.058486	0.088077	0.165850	2909.562256
4922.059383	0.087894	0.165850	2988.403320
4922.060276	0.087880	0.165850	3066.879883
4922.061164	0.087869	0.165850	3144.907227
4922.062104	0.087825	0.165850	3227.462402
4922.063014	0.087843	0.165850	3307.399658
4923.121670	1.064220	0.155666	528.917358
4923.122590	1.477987	0.155666	1888.665405
4923.123502	0.683917	0.155666	2512.397949
4923.124393	0.093516	0.155666	2595.720459
4923.125363	0.087968	0.155666	2681.049072
4923.126265	0.087821	0.155666	2760.263672
4923.127159	0.087828	0.155666	2838.782227
4923.128109	0.087876	0.155666	2922.264404
4923.129013	0.087898	0.155666	3001.724121
4923.129906	0.087905	0.155666	3080.223633
4923.130796	0.087836	0.155666	3158.397461
4923.131731	0.087872	0.155666	3240.558105
4923.132636	0.087751	0.155666	3319.973145
4924.122074	1.010354	0.166990	451.628265
4924.122986	1.474416	0.166990	1796.296143
4924.123891	0.774397	0.166990	2497.125488
4924.124834	0.095160	0.166990	2586.861328
4924.125749	0.087770	0.166990	2667.170654
4924.126653	0.087836	0.166990	2746.574219
4924.127539	0.087869	0.166990	2824.425781
4924.128496	0.087894	0.166990	2908.540527
4924.129402	0.087817	0.166990	2988.103027
4924.130293	0.087803	0.166990	3066.335205
4924.131215	0.087759	0.166990	3147.248779
4924.132126	0.087997	0.166990	3227.413818
4924.133023	0.087722	0.166990	3306.100586
4925.192667	1.005963	0.156883	453.689362
4925.193564	1.473717	0.156883	1775.613525
4925.194509	0.761671	0.156883	2495.392822
4925.195422	0.094398	0.156883	2581.578369
4925.196326	0.087803	0.156883	2660.952148
4925.197212	0.087858	0.156883	2738.793945
4925.198180	0.087821	0.156883	2823.804687
4925.199080	0.087883	0.156883	2902.899658
4925.199983	0.087865	0.156883	2982.241699
4925.200873	0.087847	0.156883	3060.425293
4925.201812	0.087971	0.156883	3143.030273
4925.202717	0.087938	0.156883	3222.614258
4925.203609	0.087773	0.156883	3300.908203
4926.192589	1.001239	0.167127	443.548889
4926.193488	1.473439	0.167127	1768.170410
4926.194440	0.763026	0.167127	2494.571289
4926.195351	0.094230	0.167127	2580.414551
4926.196256	0.087766	0.167127	2659.842773
4926.197143	0.087836	0.167127	2737.752930
4926.198100	0.087850	0.167127	2821.825684
4926.199002	0.087762	0.167127	2900.987305
4926.199901	0.087839	0.167127	2979.954834
4926.200788	0.087817	0.167127	3057.848877
4926.201718	0.087891	0.167127	3139.587158
4926.202625	0.087828	0.167127	3219.247559
4926.203518	0.087880	0.167127	3297.724121
4927.264258	1.017433	0.157282	501.594360
4927.265187	1.478166	0.157282	1874.811035
4927.266103	0.679475	0.157282	2497.210205
4927.266996	0.093248	0.157282	2580.480957
4927.267938	0.087861	0.157282	2663.246338
4927.268850	0.087795	0.157282	2743.315674
4927.269758	0.087817	0.157282	2823.053955
4927.270645	0.087843	0.157282	2900.970703
4927.271586	0.087971	0.157282	2983.751709
4927.272489	0.087814	0.157282	3063.047607
4927.273378	0.087880	0.157282	3141.172607
4927.274309	0.087751	0.157282	3222.869141
4927.275219	0.088081	0.157282	3303.022949
4928.263636	1.001924	0.167187	445.856079
4928.264574	1.475903	0.167187	1830.253418
4928.265501	0.714437	0.167187	2492.536621
4928.266407	0.093750	0.167187	2577.474121
4928.267295	0.087748	0.167187	2655.394287
4928.268247	0.087920	0.167187	2739.093994
4928.269155	0.087821	0.167187	2818.835449
4928.270049	0.087938	0.167187	2897.452148
4928.270981	0.087957	0.167187	2979.427734
4928.271886	0.087953	0.167187	3059.025146
4928.272787	0.087810	0.167187	3138.142090
4928.273671	0.087836	0.167187	3215.788818
4928.274609	0.087898	0.167187	3298.237061
4929.334283	1.048594	0.157507	527.442688
4929.335187	1.477255	0.157507	1862.880859
4929.336101	0.696398	0.157507	2499.388428
4929.336994	0.093772	0.157507	2583.126709
4929.337928	0.087935	0.157507	2665.257568
4929.338839	0.087861	0.157507	2745.299316
4929.339743	0.087806	0.157507	2824.676270
4929.340665	0.087858	0.157507	2905.681152
4929.341565	0.087982	0.157507	2984.865234
4929.342472	0.087784	0.157507	3064.485596
4929.343364	0.087784	0.157507	3142.789307
4929.344297	0.087924	0.157507	3224.822021
4929.345192	0.087916	0.157507	3303.507080
4930.335188	1.002144	0.166031	438.938843
4930.336098	1.473655	0.166031	1779.964722
4930.336999	0.801628	0.166031	2502.231934
4930.337945	0.096650	0.166031	2593.663086
4930.338864	0.087777	0.166031	2674.330322
4930.339767	0.087828	0.166031	2753.639404
4930.340656	0.087843	0.166031	2831.731934
4930.341593	0.087968	0.166031	2914.157471
4930.342489	0.087942	0.166031	2992.953369
4930.343377	0.087909	0.166031	3071.016602
4930.344282	0.087942	0.166031	3150.604004
4930.345216	0.087887	0.166031	3232.690430
4930.346124	0.087799	0.166031	3312.412109
4931.404269	1.025698	0.157777	470.795471
4931.405188	1.475222	0.157777	1826.524658
4931.406097	0.746902	0.157777	2505.458496
4931.406982	0.095735	0.157777	2590.183838
4931.407927	0.087924	0.157777	2673.271729
4931.408836	0.087740	0.157777	2753.027832
4931.409730	0.087803	0.157777	2831.523437
4931.410661	0.087898	0.157777	2913.356445
4931.411561	0.087832	0.157777	2992.405273
4931.412458	0.087847	0.157777	3071.203857
4931.413348	0.087806	0.157777	3149.351562
4931.414300	0.087854	0.157777	3232.988525
4931.415200	0.087876	0.157777	3312.076904
4932.407319	1.061906	0.166563	546.881348
4932.408236	1.478309	0.166563	1902.490967
4932.409144	0.668145	0.166563	2509.166260
4932.410034	0.093197	0.166563	2592.111572
4932.410977	0.087883	0.166563	2674.985596
4932.411883	0.087898	0.166563	2754.621094
4932.412783	0.087843	0.166563	2833.679687
4932.413710	0.087832	0.166563	2915.100098
4932.414616	0.087887	0.166563	2994.725586
4932.415524	0.087887	0.166563	3074.526855
4932.416414	0.087887	0.166563	3152.746338
4932.417350	0.087872	0.166563	3234.994873
4932.418244	0.087825	0.166563	3313.510254
4933.474307	1.051538	0.158865	519.459839
4933.475227	1.477705	0.158865	1878.948486
4933.476140	0.686082	0.158865	2505.340820
4933.477027	0.093750	0.158865	2588.497070
4933.477993	0.087729	0.158865	2673.243652
4933.478892	0.087733	0.158865	2752.115723
4933.479784	0.087733	0.158865	2830.373779
4933.480714	0.087700	0.158865	2911.935059
4933.481630	0.087909	0.158865	2992.459717
4933.482539	0.087821	0.158865	3072.289062
4933.483429	0.087803	0.158865	3150.433594
4933.484365	0.087942	0.158865	3232.747314
4933.485278	0.087792	0.158865	3312.901123
4934.479305	0.994332	0.167139	432.534515
4934.480253	1.473607	0.167139	1829.514160
4934.481174	0.731342	0.167139	2503.079590
4934.482077	0.094728	0.167139	2588.618896
4934.482962	0.087828	0.167139	2666.346924
4934.483905	0.087902	0.167139	2749.238037
4934.484812	0.087953	0.167139	2829.011230
4934.485716	0.087909	0.167139	2908.480957
4934.486602	0.087931	0.167139	2986.387695
4934.487550	0.087938	0.167139	3069.753174
4934.488455	0.087993	0.167139	3149.386963
4934.489354	0.087931	0.167139	3228.436768
4934.490284	0.087931	0.167139	3310.212402
4935.543826	1.077448	0.159699	539.801208
4935.544743	1.478090	0.159699	1895.209473
4935.545654	0.682570	0.159699	2517.030273
4935.546542	0.093512	0.159699	2600.068848
4935.547484	0.087858	0.159699	2682.830811
4935.548398	0.087814	0.159699	2763.092529
4935.549295	0.087726	0.159699	2841.782715
4935.550225	0.087916	0.159699	2923.544922
4935.551131	0.087825	0.159699	3003.114014
4935.552033	0.087762	0.159699	3082.275635
4935.552919	0.087729	0.159699	3160.003906
4935.553861	0.087839	0.159699	3242.748535
4935.554756	0.087891	0.159699	3321.410645
4936.551376	1.005081	0.167063	445.250702
4936.552281	1.473787	0.167063	1779.027588
4936.553207	0.784413	0.167063	2505.394043
4936.554145	0.094061	0.167063	2593.623535
4936.555053	0.087682	0.167063	2673.238770
4936.555943	0.087817	0.167063	2751.396240
4936.556884	0.087935	0.167063	2834.142578
4936.557790	0.087865	0.167063	2913.748291
4936.558683	0.087817	0.167063	2992.169189
4936.559573	0.087902	0.167063	3070.401611
4936.560509	0.087902	0.167063	3152.677490
4936.561417	0.087825	0.167063	3232.422363
4936.562313	0.087810	0.167063	3311.100098
4937.613299	1.016323	0.160682	489.867798
4937.614217	1.476925	0.160682	1845.684937
4937.615131	0.710991	0.160682	2495.530762
4937.616018	0.094427	0.160682	2579.287842
4937.616952	0.087854	0.160682	2661.343506
4937.617854	0.087876	0.160682	2740.607666
4937.618759	0.087836	0.160682	2820.098877
4937.619650	0.087726	0.160682	2898.262695
4937.620600	0.087949	0.160682	2981.814453
4937.621515	0.087762	0.160682	3062.117187
4937.622410	0.087799	0.160682	3140.697266
4937.623335	0.087887	0.160682	3221.992676
4937.624240	0.087821	0.160682	3301.470703
4938.623429	0.995698	0.166644	432.133026
4938.624393	1.476405	0.166644	1855.387451
4938.625315	0.689879	0.166644	2491.456055
4938.626244	0.092516	0.166644	2577.403320
4938.627132	0.087810	0.166644	2655.378662
4938.628088	0.087678	0.166644	2739.198975
4938.628993	0.087708	0.166644	2818.574219
4938.629883	0.087711	0.166644	2896.637207
4938.630825	0.087887	0.166644	2979.426758
4938.631735	0.087733	0.166644	3059.263916
4938.632643	0.087784	0.166644	3138.972168
4938.633537	0.087744	0.166644	3217.415527
4938.634475	0.087715	0.166644	3299.692139
4939.683354	1.074573	0.160762	557.703308
4939.684273	1.478654	0.160762	1916.585937
4939.685175	0.672462	0.160762	2523.146729
4939.686061	0.093494	0.160762	2605.982178
4939.687010	0.087876	0.160762	2689.376465
4939.687916	0.087795	0.160762	2768.919189
4939.688813	0.087861	0.160762	2847.730713
4939.689749	0.087887	0.160762	2929.992920
4939.690662	0.087909	0.160762	3010.253662
4939.691563	0.087828	0.160762	3089.386963
4939.692448	0.087927	0.160762	3167.202637
4939.693390	0.087975	0.160762	3250.074951
4939.694289	0.087975	0.160762	3329.164307
4940.694981	0.989608	0.166676	430.479523
4940.695875	1.472325	0.166676	1746.738403
4940.696849	0.729679	0.166676	2457.445801
4940.697757	0.094486	0.166676	2543.239258
4940.698647	0.087748	0.166676	2621.334717
4940.699587	0.087880	0.166676	2703.941650
4940.700492	0.087799	0.166676	2783.399902
4940.701396	0.087642	0.166676	2862.627930
4940.702294	0.087821	0.166676	2941.491211
4940.703225	0.087960	0.166676	3023.382080
4940.704133	0.087898	0.166676	3103.193359
4940.705034	0.087825	0.166676	3182.323486
4940.705921	0.087843	0.166676	3260.240234
4941.753357	1.030972	0.161628	522.702637
4941.754283	1.478287	0.161628	1891.596680
4941.755188	0.674707	0.161628	2502.206543
4941.756075	0.093409	0.161628	2585.060791
4941.757035	0.087803	0.161628	2669.351318
4941.757944	0.087682	0.161628	2749.054199
4941.758839	0.087795	0.161628	2827.631104
4941.759733	0.087872	0.161628	2906.188965
4941.760673	0.087883	0.161628	2988.799316
4941.761580	0.087737	0.161628	3068.376709
4941.762470	0.087733	0.161628	3146.459229
4941.763404	0.087916	0.161628	3228.572998
4941.764309	0.087799	0.161628	3308.031250
4942.766558	1.014152	0.167917	454.339905
4942.767477	1.474856	0.167917	1809.732422
4942.768386	0.764447	0.167917	2504.614746
4942.769302	0.095881	0.167917	2592.442139
4942.770214	0.087762	0.167917	2672.481445
4942.771114	0.087759	0.167917	2751.464355
4942.772009	0.087876	0.167917	2830.113281
4942.772944	0.087913	0.167917	2912.311523
4942.773854	0.087770	0.167917	2992.182129
4942.774761	0.087887	0.167917	3071.895508
4942.775648	0.087792	0.167917	3149.766846
4942.776599	0.087850	0.167917	3233.312500
4942.777506	0.087803	0.167917	3312.949707
4943.824349	1.013243	0.162027	456.972778
4943.825253	1.474233	0.162027	1789.679810
4943.826155	0.793429	0.162027	2505.352783
4943.827111	0.095226	0.162027	2596.388672
4943.828021	0.087722	0.162027	2676.215820
4943.828935	0.087839	0.162027	2756.500977
4943.829822	0.087832	0.162027	2834.407959
4943.830770	0.087894	0.162027	2917.731689
4943.831665	0.087861	0.162027	2996.367676
4943.832552	0.087887	0.162027	3074.323486
4943.833484	0.087869	0.162027	3156.217041
4943.834395	0.087795	0.162027	3236.198730
4943.835304	0.087847	0.162027	3316.051270
4944.837582	1.005286	0.166462	446.346802
4944.838482	1.473995	0.166462	1772.942627
4944.839436	0.741826	0.166462	2480.644775
4944.840346	0.094515	0.166462	2566.653809
4944.841249	0.087770	0.166462	2645.909912
4944.842139	0.087839	0.166462	2724.086914
4944.843084	0.087990	0.166462	2807.237061
4944.843991	0.087905	0.166462	2886.967041
4944.844881	0.087935	0.166462	2965.228760
4944.845804	0.088022	0.166462	3046.473389
4944.846716	0.087975	0.166462	3126.706543
4944.847626	0.087795	0.166462	3206.600342
4944.848521	0.087828	0.166462	3285.206787
4945.894860	0.999683	0.160887	439.860352
4945.895808	1.473351	0.160887	1836.597046
4945.896728	0.723798	0.160887	2502.490723
4945.897622	0.094669	0.160887	2587.125000
4945.898510	0.087649	0.160887	2664.957275
4945.899455	0.087817	0.160887	2747.944580
4945.900360	0.087854	0.160887	2827.452393
4945.901263	0.087770	0.160887	2906.708496
4945.902151	0.087880	0.160887	2984.745605
4945.903095	0.087865	0.160887	3067.690186
4945.904007	0.087781	0.160887	3147.746338
4945.904906	0.087777	0.160887	3226.657959
4945.905830	0.087902	0.160887	3307.879150
4946.908619	0.994116	0.168662	433.434662
4946.909571	1.473823	0.168662	1836.514404
4946.910501	0.709149	0.168662	2496.023193
4946.911405	0.093640	0.168662	2580.673828
4946.912295	0.087843	0.168662	2658.854004
4946.913254	0.087935	0.168662	2743.183350
4946.914161	0.087729	0.168662	2822.753906
4946.915048	0.087898	0.168662	2900.719482
4946.915948	0.087825	0.168662	2979.761719
4946.916876	0.087894	0.168662	3061.327637
4946.917775	0.087788	0.168662	3140.249023
4946.918661	0.087847	0.168662	3218.081299
4946.919588	0.087982	0.168662	3299.640869
4947.965956	1.060203	0.161846	516.318726
4947.966874	1.477262	0.161846	1872.445312
4947.967793	0.688583	0.161846	2505.252930
4947.968680	0.093724	0.161846	2588.386475
4947.969619	0.087894	0.161846	2670.919189
4947.970525	0.087865	0.161846	2750.524902
4947.971414	0.087872	0.161846	2828.643311
4947.972353	0.087861	0.161846	2911.145020
4947.973250	0.087949	0.161846	2990.035400
4947.974152	0.087847	0.161846	3069.273193
4947.975047	0.087982	0.161846	3148.017334
4947.975983	0.088011	0.161846	3230.395996
4947.976883	0.087832	0.161846	3309.444824
4948.979660	0.995431	0.167639	436.994171
4948.980625	1.476156	0.167639	1861.484619
4948.981558	0.671642	0.167639	2488.126465
4948.982469	0.092520	0.167639	2572.411865
4948.983362	0.087722	0.167639	2650.747803
4948.984325	0.087854	0.167639	2735.351318
4948.985244	0.087905	0.167639	2816.136230
4948.986138	0.087784	0.167639	2894.615479
4948.987093	0.087686	0.167639	2978.355225
4948.987993	0.087762	0.167639	3057.341309
4948.988912	0.087858	0.167639	3138.082520
4948.989799	0.087733	0.167639	3215.901855
4948.990746	0.087891	0.167639	3299.134277
4950.036447	1.014833	0.162535	452.615448
4950.037351	1.473926	0.162535	1785.044312
4950.038248	0.799175	0.162535	2501.904053
4950.039191	0.095087	0.162535	2591.570801
4950.040085	0.087836	0.162535	2670.095947
4950.040980	0.087931	0.162535	2748.794189
4950.041901	0.087865	0.162535	2829.717773
4950.042809	0.087924	0.162535	2909.552490
4950.043721	0.087803	0.162535	2989.628662
4950.044617	0.087916	0.162535	3068.401611
4950.045551	0.087990	0.162535	3150.583740
4950.046457	0.087931	0.162535	3230.249023
4950.047353	0.087891	0.162535	3308.999023
4951.050198	1.009248	0.167594	454.161621
4951.051094	1.473479	0.167594	1774.398682
4951.052060	0.729998	0.167594	2479.576172
4951.052969	0.093889	0.167594	2564.921387
4951.053874	0.087799	0.167594	2644.379639
4951.054761	0.087817	0.167594	2722.273682
4951.055703	0.087986	0.167594	2805.156250
4951.056603	0.087924	0.167594	2884.287598
4951.057500	0.087847	0.167594	2963.086182
4951.058390	0.087894	0.167594	3041.312012
4951.059321	0.088037	0.167594	3123.274658
4951.060230	0.087792	0.167594	3203.077393
4951.061124	0.087902	0.167594	3281.661377
4952.107978	0.992435	0.162084	435.679108
4952.108952	1.473270	0.162084	1870.644287
4952.109874	0.696797	0.162084	2513.091064
4952.110770	0.093450	0.162084	2596.822021
4952.111657	0.087722	0.162084	2674.631592
4952.112589	0.087993	0.162084	2756.641113
4952.113501	0.087784	0.162084	2836.700439
4952.114398	0.087799	0.162084	2915.456299
4952.115282	0.087883	0.162084	2993.145020
4952.116227	0.087913	0.162084	3076.222412
4952.117121	0.087839	0.162084	3154.750732
4952.118009	0.087942	0.162084	3232.843018
4952.118958	0.087916	0.162084	3316.275635
4953.120210	0.998405	0.167832	443.291626
4953.121106	1.473047	0.167832	1763.141602
4953.122072	0.741683	0.167832	2479.607666
4953.122969	0.094808	0.167832	2564.650879
4953.123869	0.087645	0.167832	2643.531738
4953.124760	0.087770	0.167832	2721.734619
4953.125714	0.087986	0.167832	2805.673096
4953.126622	0.087825	0.167832	2885.417969
4953.127521	0.087898	0.167832	2964.438232
4953.128444	0.087883	0.167832	3045.554443
4953.129354	0.087869	0.167832	3125.514893
4953.130247	0.087828	0.167832	3203.945557
4953.131133	0.087880	0.167832	3281.806885
4954.179535	1.007542	0.162180	447.348450
4954.180439	1.473882	0.162180	1779.737549
4954.181339	0.788394	0.162180	2489.291748
4954.182309	0.093772	0.162180	2580.250488
4954.183218	0.087686	0.162180	2659.956543
4954.184114	0.087898	0.162180	2738.713135
4954.185046	0.087865	0.162180	2820.603271
4954.185954	0.087891	0.162180	2900.407959
4954.186847	0.087854	0.162180	2978.861572
4954.187734	0.087854	0.162180	3056.788086
4954.188681	0.087891	0.162180	3140.020508
4954.189580	0.087909	0.162180	3219.050537
4954.190476	0.087861	0.162180	3297.774414
4955.190724	0.989758	0.170249	428.565338
4955.191700	1.474728	0.170249	1867.899658
4955.192629	0.670895	0.170249	2491.160889
4955.193528	0.092882	0.170249	2574.661865
4955.194414	0.087704	0.170249	2652.367432
4955.195374	0.087997	0.170249	2736.844482
4955.196286	0.087843	0.170249	2816.957275
4955.197186	0.087806	0.170249	2895.982910
4955.198109	0.087872	0.170249	2977.089111
4955.199011	0.087905	0.170249	3056.379639
4955.199919	0.087781	0.170249	3136.084473
4955.200808	0.087700	0.170249	3214.050049
4955.201734	0.087858	0.170249	3295.406250
4956.251664	1.072170	0.160839	545.734741
4956.252576	1.477767	0.160839	1893.458618
4956.253488	0.680522	0.160839	2514.095215
4956.254377	0.093516	0.160839	2597.230713
4956.255316	0.087792	0.160839	2679.667236
4956.256233	0.087876	0.160839	2760.249512
4956.257135	0.087828	0.160839	2839.470703
4956.258072	0.087905	0.160839	2921.837891
4956.258978	0.087975	0.160839	3001.543213
4956.259870	0.087902	0.160839	3079.951416
4956.260762	0.087825	0.160839	3158.291016
4956.261709	0.087916	0.160839	3241.547607
4956.262613	0.087883	0.160839	3320.994141
4957.260763	1.004333	0.170632	449.941406
4957.261658	1.473307	0.170632	1768.551025
4957.262639	0.709706	0.170632	2464.772461
4957.263532	0.093713	0.170632	2548.458496
4957.264422	0.087704	0.170632	2626.514893
4957.265333	0.087905	0.170632	2706.596680
4957.266272	0.087832	0.170632	2789.071045
4957.267171	0.087909	0.170632	2868.101074
4957.268062	0.087825	0.170632	2946.352783
4957.268999	0.087916	0.170632	3028.730225
4957.269910	0.087755	0.170632	3108.675049
4957.270824	0.087916	0.170632	3189.030518
4957.271715	0.087982	0.170632	3267.422607
4958.323651	0.988733	0.162700	428.121338
4958.324609	1.473505	0.162700	1839.738770
4958.325537	0.704462	0.162700	2493.479248
4958.326438	0.093885	0.162700	2578.070068
4958.327328	0.087817	0.162700	2656.227539
4958.328281	0.087964	0.162700	2740.057129
4958.329181	0.087924	0.162700	2819.188477
4958.330079	0.087905	0.162700	2898.127441
4958.330972	0.087975	0.162700	2976.688965
4958.331919	0.087931	0.162700	3059.959473
4958.332827	0.087894	0.162700	3139.767578
4958.333723	0.087861	0.162700	3218.491211
4958.334653	0.088063	0.162700	3300.389648
4959.330763	0.993724	0.169850	435.251282
4959.331660	1.472597	0.169850	1756.170410
4959.332645	0.722776	0.169850	2468.104736
4959.333539	0.094519	0.169850	2552.604736
4959.334428	0.087656	0.169850	2630.531250
4959.335371	0.087847	0.169850	2713.370605
4959.336267	0.087869	0.169850	2792.100830
4959.337183	0.087737	0.169850	2872.467773
4959.338078	0.087832	0.169850	2951.077393
4959.339016	0.087942	0.169850	3033.566895
4959.339929	0.087748	0.169850	3113.680664
4959.340846	0.087792	0.169850	3194.185791
4959.341733	0.087858	0.169850	3272.115479
4960.395212	0.998965	0.160976	440.543488
4960.396119	1.473252	0.160976	1776.782959
4960.397022	0.807133	0.160976	2505.623535
4960.397983	0.094753	0.160976	2596.681641
4960.398894	0.087821	0.160976	2676.686523
4960.399795	0.087770	0.160976	2755.767090
4960.400680	0.087795	0.160976	2833.466064
4960.401616	0.087909	0.160976	2915.748779
4960.402524	0.087777	0.160976	2995.450439
4960.403423	0.087861	0.160976	3074.437744
4960.404356	0.087898	0.160976	3156.446533
4960.405268	0.087920	0.160976	3236.629395
4960.406165	0.087678	0.160976	3315.276855
4961.400274	0.994687	0.169657	439.651886
4961.401232	1.476116	0.169657	1853.770752
4961.402148	0.711790	0.169657	2505.770020
4961.403044	0.094142	0.169657	2590.121094
4961.403928	0.087612	0.169657	2667.570312
4961.404869	0.087898	0.169657	2750.282227
4961.405778	0.087773	0.169657	2830.068359
4961.406671	0.087810	0.169657	2908.482666
4961.407599	0.087902	0.169657	2990.055420
4961.408508	0.087920	0.169657	3069.974609
4961.409413	0.087891	0.169657	3149.515625
4961.410301	0.087825	0.169657	3227.503906
4961.411256	0.087836	0.169657	3311.386963
4962.467273	1.004169	0.162220	435.809174
4962.468249	1.477394	0.162220	1877.745483
4962.469166	0.697921	0.162220	2517.739258
4962.470060	0.093633	0.162220	2601.447021
4962.470997	0.087828	0.162220	2683.742187
4962.471893	0.087847	0.162220	2762.452881
4962.472793	0.087766	0.162220	2841.442383
4962.473676	0.087854	0.162220	2919.017578
4962.474628	0.087979	0.162220	3002.773193
4962.475523	0.087887	0.162220	3081.432129
4962.476421	0.087902	0.162220	3160.367676
4962.477334	0.087847	0.162220	3240.571777
4962.478257	0.088026	0.162220	3321.819824
4963.470281	1.002272	0.172432	438.995026
4963.471264	1.478108	0.172432	1891.975098
4963.472185	0.666874	0.172432	2506.165771
4963.473082	0.092860	0.172432	2589.461182
4963.474021	0.087876	0.172432	2671.976807
4963.474923	0.087990	0.172432	2751.343262
4963.475820	0.087810	0.172432	2830.108887
4963.476708	0.087825	0.172432	2908.097168
4963.477645	0.087821	0.172432	2990.385498
4963.478550	0.087799	0.172432	3069.843750
4963.479451	0.087836	0.172432	3148.983643
4963.480338	0.087814	0.172432	3226.874512
4963.481294	0.087876	0.172432	3310.884033
4964.538836	1.003132	0.163107	446.393890
4964.539746	1.474127	0.163107	1787.849609
4964.540648	0.784753	0.163107	2495.697266
4964.541605	0.094120	0.163107	2585.770020
4964.542501	0.087744	0.163107	2664.388672
4964.543390	0.087880	0.163107	2742.513672
4964.544319	0.087975	0.163107	2824.242187
4964.545214	0.087847	0.163107	2902.864990
4964.546119	0.087850	0.163107	2982.369629
4964.547008	0.087847	0.163107	3060.465332
4964.547949	0.087799	0.163107	3143.084229
4964.548859	0.087894	0.163107	3223.068115
4964.549758	0.087766	0.163107	3301.969727
4965.540833	1.018081	0.170893	460.172638
4965.541752	1.474640	0.170893	1815.366699
4965.542662	0.755654	0.170893	2503.012207
4965.543549	0.095977	0.170893	2588.143311
4965.544509	0.087792	0.170893	2672.423340
4965.545410	0.087792	0.170893	2751.523682
4965.546304	0.087788	0.170893	2830.006348
4965.547238	0.087755	0.170893	2911.969727
4965.548144	0.087854	0.170893	2991.565430
4965.549047	0.087795	0.170893	3070.844727
4965.549932	0.087781	0.170893	3148.530762
4965.550883	0.087927	0.170893	3232.149658
4965.551784	0.087858	0.170893	3311.309326
4966.609873	0.997372	0.161926	440.838318
4966.610769	1.473256	0.161926	1760.875488
4966.611720	0.755306	0.161926	2479.171875
4966.612626	0.094314	0.161926	2564.620361
4966.613548	0.087711	0.161926	2645.489990
4966.614436	0.087854	0.161926	2723.504395
4966.615388	0.087682	0.161926	2806.977539
4966.616287	0.087817	0.161926	2885.925293
4966.617175	0.087814	0.161926	2963.903809
4966.618113	0.087880	0.161926	3046.334961
4966.619013	0.087653	0.161926	3125.222168
4966.619927	0.087810	0.161926	3205.480469
4966.620818	0.087803	0.161926	3283.712646
4967.611354	1.007900	0.171659	452.547272
4967.612259	1.473816	0.171659	1786.350708
4967.613153	0.800724	0.171659	2502.197754
4967.614096	0.094644	0.171659	2591.446533
4967.615005	0.087777	0.171659	2671.235840
4967.615903	0.087894	0.171659	2750.164795
4967.616820	0.087887	0.171659	2830.757080
4967.617730	0.087909	0.171659	2910.754150
4967.618644	0.087869	0.171659	2991.066162
4967.619544	0.087861	0.171659	3070.141357
4967.620485	0.087916	0.171659	3152.870605
4967.621380	0.087817	0.171659	3231.467041
4967.622279	0.087872	0.171659	3310.464355
4968.680922	1.011398	0.161709	453.106171
4968.681854	1.474702	0.161709	1827.528564
4968.682757	0.748975	0.161709	2503.852539
4968.683699	0.094376	0.161709	2592.754883
4968.684608	0.087817	0.161709	2672.580811
4968.685510	0.087792	0.161709	2751.769043
4968.686400	0.087825	0.161709	2829.933105
4968.687350	0.087909	0.161709	2913.446533
4968.688264	0.087762	0.161709	2993.661377
4968.689162	0.087784	0.161709	3072.491699
4968.690083	0.087839	0.161709	3153.391846
4968.690993	0.087828	0.161709	3233.315674
4968.691905	0.087770	0.161709	3313.361816
4969.682379	0.990223	0.172142	432.727600
4969.683279	1.472545	0.172142	1758.018311
4969.684258	0.704843	0.172142	2448.059082
4969.685160	0.093882	0.172142	2532.740479
4969.686058	0.087810	0.172142	2611.593994
4969.686944	0.087817	0.172142	2689.400146
4969.687874	0.087861	0.172142	2771.111084
4969.688776	0.087814	0.172142	2850.319092
4969.689668	0.087894	0.172142	2928.720703
4969.690603	0.087924	0.172142	3010.929199
4969.691520	0.087894	0.172142	3091.528320
4969.692421	0.087814	0.172142	3170.648437
4969.693306	0.087795	0.172142	3248.347412
4970.751484	1.053043	0.162257	512.832031
4970.752387	1.476350	0.162257	1845.976196
4970.753331	0.700693	0.162257	2507.430664
4970.754232	0.092977	0.162257	2591.203125
4970.755137	0.087715	0.162257	2670.584961
4970.756024	0.087839	0.162257	2748.498535
4970.756983	0.087916	0.162257	2832.810303
4970.757878	0.087949	0.162257	2911.524902
4970.758777	0.087982	0.162257	2990.620850
4970.759662	0.087865	0.162257	3068.381348
4970.760603	0.087927	0.162257	3151.120850
4970.761508	0.087902	0.162257	3230.671875
4970.762407	0.087814	0.162257	3309.616455
4971.753416	0.989539	0.172138	431.438812
4971.754370	1.476189	0.172138	1839.723145
4971.755286	0.711412	0.172138	2491.376953
4971.756221	0.092772	0.172138	2578.118896
4971.757110	0.087733	0.172138	2656.113770
4971.758066	0.087880	0.172138	2740.126709
4971.758961	0.087828	0.172138	2818.733154
4971.759849	0.087803	0.172138	2896.701904
4971.760792	0.087942	0.172138	2979.631104
4971.761677	0.087784	0.172138	3057.320312
4971.762593	0.087916	0.172138	3137.851562
4971.763490	0.087803	0.172138	3216.610596
4971.764436	0.087949	0.172138	3299.810547
4972.821961	0.992673	0.162889	432.805573
4972.822859	1.472794	0.162889	1755.374756
4972.823839	0.712914	0.162889	2454.030273
4972.824742	0.093973	0.162889	2538.888184
4972.825638	0.087843	0.162889	2617.595459
4972.826587	0.087964	0.162889	2701.073242
4972.827486	0.087927	0.162889	2780.119873
4972.828385	0.087887	0.162889	2859.130371
4972.829273	0.087880	0.162889	2937.167480
4972.830206	0.087938	0.162889	3019.213867
4972.831110	0.087814	0.162889	3098.597412
4972.832007	0.087891	0.162889	3177.435303
4972.832913	0.087949	0.162889	3257.117187
4973.825484	0.990916	0.171216	432.039185
4973.826431	1.473907	0.171216	1827.829590
4973.827354	0.724651	0.171216	2496.682373
4973.828251	0.094501	0.171216	2581.449463
4973.829141	0.087759	0.171216	2659.554687
4973.830087	0.087927	0.171216	2742.733887
4973.830989	0.087916	0.171216	2822.034424
4973.831889	0.087825	0.171216	2901.076660
4973.832791	0.087916	0.171216	2980.377197
4973.833716	0.087887	0.171216	3061.672607
4973.834624	0.087828	0.171216	3141.420654
4973.835509	0.087898	0.171216	3219.210449
4973.836443	0.087968	0.171216	3301.372070
4974.891991	0.997826	0.163070	444.032562
4974.892885	1.473091	0.163070	1760.975830
4974.893851	0.716700	0.163070	2453.308594
4974.894768	0.093680	0.163070	2539.213623
4974.895660	0.087770	0.163070	2617.504150
4974.896590	0.087883	0.163070	2699.235596
4974.897502	0.087913	0.163070	2779.411865
4974.898414	0.087942	0.163070	2859.614746
4974.899303	0.087843	0.163070	2937.707275
4974.900255	0.087990	0.163070	3021.473389
4974.901165	0.087931	0.163070	3101.490479
4974.902064	0.087913	0.163070	3180.523926
4974.902948	0.087803	0.163070	3258.141602
4975.897044	1.009973	0.170632	450.448029
4975.897944	1.473369	0.170632	1776.480225
4975.898841	0.815094	0.170632	2507.619629
4975.899780	0.095526	0.170632	2597.318604
4975.900684	0.087953	0.170632	2676.828125
4975.901583	0.088004	0.170632	2755.943848
4975.902469	0.087953	0.170632	2833.870117
4975.903423	0.087913	0.170632	2917.738770
4975.904330	0.087861	0.170632	2997.428955
4975.905221	0.087920	0.170632	3075.765625
4975.906154	0.087964	0.170632	3157.835937
4975.907058	0.087990	0.170632	3237.378418
4975.907961	0.087858	0.170632	3316.713867
4976.962006	1.018209	0.163687	455.139526
4976.962949	1.476024	0.163687	1847.030273
4976.963865	0.722769	0.163687	2509.086426
4976.964799	0.093219	0.163687	2596.153076
4976.965708	0.087784	0.163687	2675.949219
4976.966603	0.087847	0.163687	2754.572021
4976.967537	0.087865	0.163687	2836.637939
4976.968455	0.087821	0.163687	2917.257568
4976.969370	0.087806	0.163687	2997.600342
4976.970261	0.087927	0.163687	3075.943604
4976.971217	0.087931	0.163687	3160.005615
4976.972139	0.087792	0.163687	3240.949707
4976.973028	0.087836	0.163687	3319.035645
4977.968587	0.995724	0.172424	436.127075
4977.969550	1.476650	0.172424	1858.141357
4977.970474	0.691560	0.172424	2497.142822
4977.971378	0.093347	0.172424	2581.528564
4977.972267	0.087766	0.172424	2659.552734
4977.973199	0.088004	0.172424	2741.572510
4977.974106	0.087792	0.172424	2821.199707
4977.974996	0.087909	0.172424	2899.438721
4977.975932	0.087935	0.172424	2981.745361
4977.976841	0.087839	0.172424	3061.591309
4977.977740	0.087876	0.172424	3140.591797
4977.978629	0.087894	0.172424	3218.729736
4977.979576	0.087964	0.172424	3302.031494
4979.033057	1.013342	0.164525	453.977325
4979.033979	1.474995	0.164525	1813.922729
4979.034883	0.764293	0.164525	2504.843750
4979.035823	0.095841	0.164525	2594.934326
4979.036725	0.087876	0.164525	2674.198486
4979.037619	0.087880	0.164525	2752.762939
4979.038508	0.087799	0.164525	2830.816406
4979.039446	0.087975	0.164525	2913.336914
4979.040350	0.088008	0.164525	2992.895996
4979.041254	0.087986	0.164525	3072.435303
4979.042143	0.087902	0.164525	3150.579834
4979.043080	0.087938	0.164525	3232.978027
4979.043984	0.087847	0.164525	3312.391357
4980.039621	0.989070	0.173476	428.267242
4980.040570	1.475332	0.173476	1828.357300
4980.041505	0.704630	0.173476	2487.186523
4980.042396	0.093911	0.173476	2570.861328
4980.043336	0.087825	0.173476	2653.416504
4980.044247	0.087832	0.173476	2733.431396
4980.045163	0.087971	0.173476	2814.012939
4980.046054	0.087909	0.173476	2892.339844
4980.047011	0.087894	0.173476	2976.454590
4980.047906	0.087843	0.173476	3055.073975
4980.048821	0.087982	0.173476	3135.577637
4980.049724	0.087982	0.173476	3215.025635
4980.050680	0.087748	0.173476	3298.912598
4981.103572	1.006549	0.164315	449.927399
4981.104474	1.473516	0.164315	1779.038452
4981.105380	0.784237	0.164315	2489.557129
4981.106332	0.094241	0.164315	2579.274414
4981.107238	0.087810	0.164315	2658.830322
4981.108138	0.087810	0.164315	2737.859375
4981.109063	0.087913	0.164315	2819.178467
4981.109969	0.088015	0.164315	2898.920166
4981.110866	0.087946	0.164315	2977.807373
4981.111755	0.087953	0.164315	3055.997559
4981.112703	0.088008	0.164315	3139.428955
4981.113602	0.087839	0.164315	3218.396484
4981.114498	0.087949	0.164315	3297.198975
4982.111179	0.992596	0.171945	431.779449
4982.112120	1.472999	0.171945	1817.871826
4982.113040	0.735835	0.171945	2494.839844
4982.113930	0.095131	0.171945	2579.506104
4982.114824	0.087667	0.171945	2657.880615
4982.115774	0.087898	0.171945	2741.383789
4982.116671	0.087905	0.171945	2820.234863
4982.117573	0.087891	0.171945	2899.512207
4982.118465	0.087770	0.171945	2977.802734
4982.119413	0.087916	0.171945	3061.147461
4982.120322	0.087902	0.171945	3141.050049
4982.121223	0.087795	0.171945	3220.153809
4982.122154	0.087971	0.171945	3302.054932
4983.174100	1.003795	0.164996	446.688904
4983.175001	1.473680	0.164996	1774.474854
4983.175901	0.794000	0.164996	2489.075195
4983.176877	0.093552	0.164996	2580.382080
4983.177781	0.087620	0.164996	2659.590332
4983.178676	0.087825	0.164996	2738.193359
4983.179609	0.087935	0.164996	2820.236328
4983.180515	0.087810	0.164996	2899.792236
4983.181427	0.087788	0.164996	2979.854980
4983.182316	0.087740	0.164996	3057.856201
4983.183263	0.087836	0.164996	3141.036621
4983.184157	0.088055	0.164996	3219.758057
4983.185072	0.087788	0.164996	3300.084229
4984.181708	1.009299	0.172013	444.091675
4984.182664	1.476464	0.172013	1855.590942
4984.183586	0.703759	0.172013	2504.456299
4984.184478	0.093937	0.172013	2588.247803
4984.185431	0.087935	0.172013	2672.049561
4984.186328	0.087825	0.172013	2750.828369
4984.187233	0.087828	0.172013	2830.312988
4984.188122	0.087913	0.172013	2908.467285
4984.189062	0.087953	0.172013	2991.143066
4984.189962	0.087762	0.172013	3070.129150
4984.190865	0.087872	0.172013	3149.477783
4984.191770	0.087891	0.172013	3229.018799
4984.192690	0.087843	0.172013	3309.834473
4985.245184	1.023571	0.165645	505.643860
4985.246094	1.476903	0.165645	1849.625732
4985.247004	0.714591	0.165645	2499.903564
4985.247888	0.094332	0.165645	2583.293213
4985.248822	0.087891	0.165645	2665.383057
4985.249736	0.087832	0.165645	2745.661621
4985.250639	0.087905	0.165645	2825.040039
4985.251526	0.087858	0.165645	2902.969727
4985.252484	0.088019	0.165645	2987.291748
4985.253388	0.087861	0.165645	3066.718506
4985.254285	0.087891	0.165645	3145.556396
4985.255219	0.088019	0.165645	3227.765869
4985.256122	0.087920	0.165645	3307.157471
4986.253278	1.009365	0.173274	454.214355
4986.254184	1.473721	0.173274	1789.405273
4986.255079	0.791854	0.173274	2498.114746
4986.256020	0.094768	0.173274	2587.291504
4986.256921	0.087748	0.173274	2666.352295
4986.257812	0.087902	0.173274	2744.672607
4986.258736	0.087858	0.173274	2825.853027
4986.259657	0.087916	0.173274	2906.823975
4986.260566	0.087898	0.173274	2986.723145
4986.261454	0.087971	0.173274	3064.841553
4986.262395	0.087953	0.173274	3147.605225
4986.263305	0.087832	0.173274	3227.532471
4986.264206	0.087979	0.173274	3306.801025
4987.315677	1.003136	0.164867	444.389252
4987.316597	1.474471	0.164867	1800.903076
4987.317504	0.768197	0.164867	2497.657715
4987.318453	0.095350	0.164867	2588.145264
4987.319366	0.087766	0.164867	2668.275635
4987.320269	0.087839	0.164867	2747.594482
4987.321159	0.087832	0.164867	2825.764893
4987.322121	0.087975	0.164867	2910.396729
4987.323026	0.087894	0.164867	2989.941162
4987.323915	0.087920	0.164867	3068.102051
4987.324829	0.087795	0.164867	3148.347168
4987.325750	0.087960	0.164867	3229.358398
4987.326651	0.087817	0.164867	3308.481934
4988.323796	1.005937	0.173371	446.636230
4988.324697	1.473391	0.173371	1774.161621
4988.325598	0.814611	0.173371	2508.125732
4988.326550	0.095010	0.173371	2598.574951
4988.327455	0.087700	0.173371	2677.943604
4988.328380	0.087909	0.173371	2759.259277
4988.329271	0.087810	0.173371	2837.498047
4988.330237	0.087876	0.173371	2922.386230
4988.331151	0.087748	0.173371	3002.587646
4988.332042	0.087942	0.173371	3080.943848
4988.332998	0.087781	0.173371	3164.862305
4988.333897	0.087828	0.173371	3243.820068
4988.334816	0.087872	0.173371	3324.574707
4989.386709	1.000584	0.165451	443.258514
4989.387607	1.472988	0.165451	1766.001953
4989.388583	0.710240	0.165451	2459.196777
4989.389489	0.094021	0.165451	2544.379883
4989.390379	0.087850	0.165451	2622.566650
4989.391303	0.087788	0.165451	2703.682861
4989.392219	0.087938	0.165451	2784.234375
4989.393130	0.087843	0.165451	2864.259277
4989.394022	0.087854	0.165451	2942.625000
4989.394950	0.087916	0.165451	3024.211182
4989.395855	0.087927	0.165451	3103.785400
4989.396751	0.087902	0.165451	3182.545166
4989.397640	0.087821	0.165451	3260.618164
4990.393802	0.996522	0.173375	438.469788
4990.394771	1.474138	0.173375	1866.909668
4990.395689	0.690249	0.173375	2500.558350
4990.396591	0.093406	0.173375	2584.810303
4990.397482	0.087700	0.173375	2662.951172
4990.398418	0.087850	0.173375	2745.179199
4990.399327	0.087902	0.173375	2825.081787
4990.400229	0.087854	0.173375	2904.326172
4990.401133	0.087854	0.173375	2983.746094
4990.402066	0.087891	0.173375	3065.748047
4990.402971	0.087821	0.173375	3145.226074
4990.403861	0.087916	0.173375	3223.471436
4990.404795	0.087993	0.173375	3305.656982
4991.458253	0.999697	0.166212	441.866180
4991.459200	1.476357	0.166212	1839.976685
4991.460127	0.696039	0.166212	2485.204590
4991.461051	0.092834	0.166212	2570.983643
4991.461947	0.087891	0.166212	2649.733643
4991.462890	0.087836	0.166212	2732.562744
4991.463787	0.087847	0.166212	2811.361328
4991.464673	0.087898	0.166212	2889.239014
4991.465617	0.088019	0.166212	2972.328857
4991.466520	0.087898	0.166212	3051.700684
4991.467440	0.087876	0.166212	3132.546631
4991.468327	0.087938	0.166212	3210.547852
4991.469271	0.087905	0.166212	3293.530518
4992.464383	1.019502	0.173886	500.575439
4992.465304	1.477438	0.173886	1861.295532
4992.466232	0.675494	0.173886	2488.154297
4992.467124	0.093201	0.173886	2571.289307
4992.468053	0.087865	0.173886	2652.915771
4992.468962	0.087916	0.173886	2732.831543
4992.469861	0.087913	0.173886	2811.864990
4992.470748	0.087839	0.173886	2889.778564
4992.471691	0.087982	0.173886	2972.745850
4992.472596	0.087843	0.173886	3052.243896
4992.473484	0.087869	0.173886	3130.271240
4992.474413	0.087975	0.173886	3212.000000
4992.475326	0.087905	0.173886	3292.257568
4993.530322	1.004286	0.166059	445.902954
4993.531285	1.476086	0.166059	1867.374146
4993.532202	0.696438	0.166059	2506.007812
4993.533097	0.093680	0.166059	2589.851807
4993.533984	0.087744	0.166059	2667.680908
4993.534917	0.087920	0.166059	2749.710205
4993.535828	0.087858	0.166059	2829.748535
4993.536723	0.087777	0.166059	2908.309082
4993.537653	0.087927	0.166059	2990.081543
4993.538561	0.087898	0.166059	3069.892822
4993.539469	0.087715	0.166059	3149.537842
4993.540359	0.087869	0.166059	3227.740967
4993.541295	0.087869	0.166059	3309.986084
4994.534924	1.070526	0.174015	539.545166
4994.535849	1.477932	0.174015	1906.632446
4994.536760	0.669844	0.174015	2516.860107
4994.537647	0.093274	0.174015	2599.593994
4994.538602	0.087931	0.174015	2683.568115
4994.539506	0.087803	0.174015	2762.941895
4994.540396	0.087913	0.174015	2841.184082
4994.541342	0.087946	0.174015	2924.380615
4994.542254	0.087946	0.174015	3004.586914
4994.543148	0.087927	0.174015	3083.193848
4994.544041	0.087927	0.174015	3161.712891
4994.544967	0.088019	0.174015	3243.218262
4994.545878	0.087913	0.174015	3323.306641
4995.601874	1.002158	0.166072	444.958282
4995.602768	1.473047	0.166072	1761.862183
4995.603667	0.818046	0.166072	2497.285156
4995.604615	0.095175	0.166072	2587.510742
4995.605524	0.087770	0.166072	2667.293457
4995.606423	0.087909	0.166072	2746.323486
4995.607337	0.087836	0.166072	2826.605225
4995.608245	0.087997	0.166072	2906.506348
4995.609158	0.087759	0.166072	2986.630127
4995.610053	0.087927	0.166072	3065.324951
4995.610988	0.088008	0.166072	3147.612305
4995.611892	0.087876	0.166072	3227.052246
4995.612794	0.087883	0.166072	3306.322998
4996.604872	0.997786	0.175828	438.027893
4996.605782	1.473603	0.175828	1779.007080
4996.606693	0.785039	0.175828	2494.177734
4996.607629	0.095197	0.175828	2583.281738
4996.608534	0.087722	0.175828	2662.670410
4996.609442	0.087858	0.175828	2742.445068
4996.610333	0.087880	0.175828	2820.745850
4996.611275	0.087975	0.175828	2903.618164
4996.612184	0.087949	0.175828	2983.563965
4996.613076	0.087832	0.175828	3061.910156
4996.614010	0.087931	0.175828	3144.037598
4996.614917	0.087905	0.175828	3223.767578
4996.615816	0.087869	0.175828	3302.761475
4997.672406	1.003707	0.166692	452.671997
4997.673303	1.473666	0.166692	1774.550293
4997.674238	0.775375	0.166692	2499.525635
4997.675163	0.094006	0.166692	2586.481445
4997.676070	0.087887	0.166692	2666.194824
4997.676957	0.087843	0.166692	2744.111572
4997.677901	0.087861	0.166692	2827.052734
4997.678807	0.087894	0.166692	2906.685059
4997.679711	0.087865	0.166692	2986.114990
4997.680600	0.087817	0.166692	3064.184570
4997.681538	0.087927	0.166692	3146.660400
4997.682440	0.087697	0.166692	3225.762695
4997.683333	0.087865	0.166692	3304.226074
4998.675411	1.005875	0.174559	448.620361
4998.676313	1.473951	0.174559	1778.124634
4998.677266	0.745258	0.174559	2488.354980
4998.678173	0.094669	0.174559	2574.219971
4998.679068	0.087762	0.174559	2652.767334
4998.679954	0.087839	0.174559	2730.593018
4998.680882	0.087898	0.174559	2812.162354
4998.681787	0.087784	0.174559	2891.607178
4998.682690	0.087784	0.174559	2970.876465
4998.683581	0.087854	0.174559	3049.154297
4998.684538	0.088041	0.174559	3133.409424
4998.685449	0.087700	0.174559	3213.304199
4998.686349	0.087847	0.174559	3292.366211
4999.744009	1.068384	0.165914	535.260315
4999.744921	1.477361	0.165914	1882.613525
4999.745830	0.701276	0.165914	2520.072998
4999.746715	0.094274	0.165914	2603.505127
4999.747659	0.087880	0.165914	2686.463379
4999.748558	0.087891	0.165914	2765.477051
4999.749454	0.087993	0.165914	2844.318848
4999.750385	0.087979	0.165914	2926.226807
4999.751282	0.088074	0.165914	3005.229004
4999.752183	0.087913	0.165914	3084.438232
4999.753072	0.087927	0.165914	3162.605469
4999.754017	0.087968	0.165914	3245.734863
4999.754921	0.087843	0.165914	3325.145020
5000.745436	1.014496	0.176573	458.552124
5000.746334	1.473951	0.176573	1782.160522
5000.747260	0.775616	0.176573	2500.381348
5000.748194	0.094072	0.176573	2588.244873
5000.749098	0.087704	0.176573	2667.529053
5000.749989	0.087828	0.176573	2745.784180
5000.750932	0.087905	0.176573	2828.678955
5000.751837	0.087792	0.176573	2908.130371
5000.752742	0.087825	0.176573	2987.611816
5000.753626	0.087927	0.176573	3065.339600
5000.754564	0.087843	0.176573	3147.736328
5000.755467	0.087784	0.176573	3227.005615
5000.756352	0.087869	0.176573	3304.769287
5001.816008	0.996888	0.166055	436.637146
5001.816970	1.474347	0.166055	1854.958740
5001.817897	0.690432	0.166055	2494.989258
5001.818801	0.093362	0.166055	2579.388428
5001.819689	0.087729	0.166055	2657.292236
5001.820634	0.087949	0.166055	2740.404297
5001.821535	0.087880	0.166055	2819.583740
5001.822432	0.087858	0.166055	2898.392090
5001.823340	0.087795	0.166055	2978.110352
5001.824281	0.087935	0.166055	3060.856689
5001.825193	0.087799	0.166055	3140.929443
5001.826091	0.087872	0.166055	3219.838867
5001.827020	0.087795	0.166055	3301.400879
5002.816458	1.007574	0.175748	441.317596
5002.817439	1.478071	0.175748	1891.305664
5002.818369	0.659788	0.175748	2504.908203
5002.819263	0.092717	0.175748	2587.797363
5002.820193	0.087843	0.175748	2669.491455
5002.821101	0.087902	0.175748	2749.306152
5002.822001	0.087821	0.175748	2828.345215
5002.822887	0.087909	0.175748	2906.232422
5002.823832	0.087909	0.175748	2989.306396
5002.824730	0.087839	0.175748	3068.186035
5002.825622	0.087887	0.175748	3146.581299
5002.826513	0.087891	0.175748	3224.891846
5002.827464	0.087858	0.175748	3308.444580
5003.886549	0.998943	0.166442	441.532745
5003.887502	1.476324	0.166442	1848.469849
5003.888422	0.709387	0.166442	2501.106201
5003.889323	0.093999	0.166442	2585.799316
5003.890216	0.087821	0.166442	2664.223633
5003.891140	0.087883	0.166442	2745.427734
5003.892041	0.087788	0.166442	2824.524902
5003.892930	0.087905	0.166442	2902.672607
5003.893864	0.087854	0.166442	2984.728271
5003.894775	0.087836	0.166442	3064.746582
5003.895677	0.087682	0.166442	3143.835693
5003.896564	0.087781	0.166442	3221.697266
5003.897506	0.087891	0.166442	3304.490234
5004.887515	1.014181	0.176311	454.353027
5004.888416	1.473505	0.176311	1781.980713
5004.889309	0.811490	0.176311	2506.641602
5004.890249	0.095259	0.176311	2596.184814
5004.891153	0.087781	0.176311	2675.538574
5004.892054	0.087953	0.176311	2754.784180
5004.892945	0.087935	0.176311	2833.133789
5004.893894	0.088030	0.176311	2916.674072
5004.894808	0.087715	0.176311	2996.845459
5004.895701	0.087854	0.176311	3075.299072
5004.896628	0.087898	0.176311	3156.780518
5004.897531	0.087946	0.176311	3236.195312
5004.898424	0.087810	0.176311	3314.609619
5005.957084	1.015338	0.166188	455.886841
5005.958008	1.474497	0.166188	1818.322144
5005.958905	0.769537	0.166188	2508.597168
5005.959843	0.095944	0.166188	2598.592285
5005.960751	0.087839	0.166188	2678.350342
5005.961650	0.087847	0.166188	2757.324463
5005.962541	0.087935	0.166188	2835.674072
5005.963502	0.087946	0.166188	2920.189697
5005.964407	0.087832	0.166188	2999.677734
5005.965307	0.087839	0.166188	3078.733154
5005.966193	0.087894	0.166188	3156.607422
5005.967144	0.087858	0.166188	3240.160156
5005.968048	0.087799	0.166188	3319.530518
5006.958553	1.015986	0.177508	456.177856
5006.959448	1.473563	0.177508	1775.016968
5006.960411	0.731700	0.177508	2479.644531
5006.961319	0.094739	0.177508	2565.667236
5006.962208	0.087795	0.177508	2643.717285
5006.963144	0.087982	0.177508	2726.068604
5006.964040	0.087949	0.177508	2804.871094
5006.964942	0.087869	0.177508	2884.128662
5006.965828	0.087766	0.177508	2961.889404
5006.966771	0.087931	0.177508	3044.808350
5006.967672	0.087924	0.177508	3124.027588
5006.968575	0.087861	0.177508	3203.366455
5006.969478	0.087850	0.177508	3282.695312
5008.027601	1.004498	0.166849	447.001770
5008.028495	1.473094	0.166849	1763.948242
5008.029420	0.794326	0.166849	2498.699951
5008.030356	0.094691	0.166849	2587.330811
5008.031265	0.087861	0.166849	2667.196777
5008.032157	0.087913	0.166849	2745.614746
5008.033098	0.087946	0.166849	2828.371582
5008.034001	0.087946	0.166849	2907.786377
5008.034903	0.087913	0.166849	2987.083496
5008.035790	0.087858	0.166849	3065.013184
5008.036727	0.087990	0.166849	3147.459229
5008.037635	0.087861	0.166849	3227.237305
5008.038536	0.087887	0.166849	3306.423340
5009.030669	1.072833	0.178044	538.562256
5009.031585	1.477683	0.178044	1892.119995
5009.032519	0.648402	0.178044	2497.727539
5009.033406	0.092750	0.178044	2579.997070
5009.034362	0.087781	0.178044	2663.915527
5009.035258	0.087935	0.178044	2742.704834
5009.036147	0.087865	0.178044	2820.816895
5009.037085	0.087902	0.178044	2903.268555
5009.037980	0.087931	0.178044	2981.966797
5009.038899	0.087751	0.178044	3062.610352
5009.039794	0.087832	0.178044	3141.219971
5009.040729	0.087957	0.178044	3223.459229
5009.041633	0.087832	0.178044	3302.859375
5010.098122	0.990853	0.165479	432.012054
5010.099017	1.472278	0.165479	1749.700806
5010.099999	0.714247	0.165479	2451.091309
5010.100905	0.094222	0.165479	2536.456787
5010.101807	0.087762	0.165479	2615.618408
5010.102744	0.087964	0.165479	2698.040527
5010.103645	0.087880	0.165479	2777.219971
5010.104546	0.087898	0.165479	2856.416016
5010.105435	0.087971	0.165479	2934.622314
5010.106372	0.087960	0.165479	3017.041016
5010.107276	0.087924	0.165479	3096.523926
5010.108181	0.087880	0.165479	3176.054932
5010.109068	0.087968	0.165479	3254.082031
5011.102724	1.037970	0.177597	517.947021
5011.103642	1.477548	0.177597	1874.335693
5011.104558	0.679457	0.177597	2496.718262
5011.105449	0.093494	0.177597	2580.020996
5011.106406	0.087803	0.177597	2664.048340
5011.107313	0.087858	0.177597	2743.735352
5011.108209	0.087828	0.177597	2822.429687
5011.109127	0.087993	0.177597	2903.207520
5011.110037	0.087949	0.177597	2983.241211
5011.110946	0.087876	0.177597	3063.120361
5011.111834	0.087839	0.177597	3141.121826
5011.112765	0.087946	0.177597	3222.999023
5011.113667	0.087828	0.177597	3302.220215
5012.167663	1.026460	0.168791	481.409698
5012.168573	1.475127	0.168791	1823.775269
5012.169472	0.759089	0.168791	2506.196533
5012.170433	0.093098	0.168791	2595.663818
5012.171329	0.087759	0.168791	2674.295654
5012.172243	0.087770	0.168791	2754.517334
5012.173137	0.087902	0.168791	2833.101318
5012.174095	0.087744	0.168791	2917.160156
5012.174998	0.087755	0.168791	2996.403076
5012.175886	0.087770	0.168791	3074.342529
5012.176821	0.087803	0.168791	3156.437988
5012.177745	0.087795	0.168791	3237.561035
5012.178662	0.087770	0.168791	3318.045898
5013.175244	0.996735	0.175848	437.566528
5013.176193	1.476204	0.175848	1838.483765
5013.177127	0.703422	0.175848	2495.479492
5013.178032	0.093230	0.175848	2579.852539
5013.178952	0.087784	0.175848	2660.614258
5013.179866	0.087946	0.175848	2740.996582
5013.180774	0.087836	0.175848	2820.751465
5013.181666	0.087938	0.175848	2899.192383
5013.182606	0.087997	0.175848	2981.909424
5013.183499	0.087902	0.175848	3060.405518
5013.184402	0.087887	0.175848	3139.767334
5013.185296	0.087883	0.175848	3218.334961
5013.186248	0.087913	0.175848	3302.027832
5014.238154	0.990242	0.169540	429.764862
5014.239111	1.474021	0.169540	1840.403076
5014.240028	0.720560	0.169540	2501.156738
5014.240931	0.094226	0.169540	2586.242920
5014.241822	0.087810	0.169540	2664.481689
5014.242775	0.087960	0.169540	2748.307861
5014.243685	0.087861	0.169540	2828.261719
5014.244587	0.087788	0.169540	2907.446533
5014.245510	0.087916	0.169540	2988.593262
5014.246418	0.087887	0.169540	3068.394531
5014.247325	0.087821	0.169540	3148.048340
5014.248215	0.087814	0.169540	3226.202637
5014.249147	0.087953	0.169540	3308.174805
5015.245815	1.012452	0.175208	485.977142
5015.246737	1.476984	0.175208	1847.755981
5015.247652	0.707084	0.175208	2494.737549
5015.248541	0.094325	0.175208	2578.592529
5015.249495	0.087799	0.175208	2662.352783
5015.250405	0.087762	0.175208	2742.216553
5015.251303	0.087803	0.175208	2821.063477
5015.252186	0.087861	0.175208	2898.645020
5015.253124	0.087858	0.175208	2981.055420
5015.254024	0.087737	0.175208	3060.018555
5015.254913	0.087913	0.175208	3138.172852
5015.255837	0.087887	0.175208	3219.380371
5015.256763	0.087960	0.175208	3300.831543
5016.307654	0.991538	0.170309	430.327545
5016.308550	1.472230	0.170309	1749.445801
5016.309539	0.703301	0.170309	2445.010254
5016.310444	0.093699	0.170309	2529.807617
5016.311337	0.087697	0.170309	2608.120605
5016.312270	0.087876	0.170309	2690.108887
5016.313174	0.087843	0.170309	2769.519043
5016.314076	0.087781	0.170309	2848.697266
5016.314963	0.087832	0.170309	2926.604248
5016.315907	0.087979	0.170309	3009.656006
5016.316805	0.087964	0.170309	3088.647461
5016.317701	0.087902	0.170309	3167.407227
5016.318620	0.087927	0.170309	3248.212402
5017.317844	1.006359	0.177190	450.848663
5017.318741	1.473519	0.177190	1772.595337
5017.319706	0.725116	0.177190	2472.332275
5017.320621	0.093721	0.177190	2558.086670
5017.321538	0.087821	0.177190	2638.618652
5017.322426	0.087810	0.177190	2716.593994
5017.323379	0.087927	0.177190	2800.388672
5017.324272	0.087806	0.177190	2878.799805
5017.325159	0.087832	0.177190	2956.706787
5017.326087	0.087814	0.177190	3038.197998
5017.326998	0.087799	0.177190	3118.182861
5017.327904	0.087784	0.177190	3197.715576
5017.328792	0.087861	0.177190	3275.736328
5018.378766	1.067241	0.169814	538.956787
5018.379680	1.477562	0.169814	1889.448730
5018.380592	0.686356	0.169814	2515.405518
5018.381478	0.093864	0.169814	2598.568604
5018.382411	0.087905	0.169814	2680.584229
5018.383319	0.087817	0.169814	2760.322510
5018.384215	0.087817	0.169814	2839.006836
5018.385148	0.087902	0.169814	2921.019043
5018.386058	0.087942	0.169814	3001.046143
5018.386965	0.087711	0.169814	3080.600098
5018.387858	0.087836	0.169814	3159.037354
5018.388799	0.087935	0.169814	3241.783691
5018.389702	0.087847	0.169814	3321.109131
5019.388930	1.050187	0.177878	508.290375
5019.389844	1.476259	0.177878	1857.590820
5019.390744	0.729144	0.177878	2513.820801
5019.391671	0.094801	0.177878	2601.701416
5019.392585	0.087872	0.177878	2682.016602
5019.393488	0.087715	0.177878	2761.223145
5019.394385	0.087924	0.177878	2840.090576
5019.395324	0.087891	0.177878	2922.619873
5019.396227	0.087909	0.177878	3002.001709
5019.397133	0.087825	0.177878	3081.570801
5019.398023	0.087773	0.177878	3159.689209
5019.398973	0.087931	0.177878	3243.223633
5019.399877	0.087795	0.177878	3322.590576
5020.448763	1.020930	0.170438	497.192993
5020.449693	1.477544	0.170438	1871.308838
5020.450608	0.686173	0.170438	2499.157227
5020.451496	0.093743	0.170438	2582.400635
5020.452455	0.087894	0.170438	2666.691162
5020.453367	0.087784	0.170438	2746.750488
5020.454264	0.087762	0.170438	2825.473389
5020.455152	0.087861	0.170438	2903.494141
5020.456088	0.087935	0.170438	2985.800781
5020.456994	0.087891	0.170438	3065.429687
5020.457882	0.087964	0.170438	3143.541504
5020.458814	0.087927	0.170438	3225.489746
5020.459732	0.087777	0.170438	3306.069092
5021.459924	1.008919	0.176263	453.004425
5021.460819	1.473406	0.176263	1771.702637
5021.461779	0.734755	0.176263	2477.067139
5021.462676	0.094922	0.176263	2562.212158
5021.463573	0.087722	0.176263	2640.898926
5021.464458	0.087872	0.176263	2718.666016
5021.465394	0.087913	0.176263	2800.952148
5021.466300	0.087825	0.176263	2880.521240
5021.467196	0.087869	0.176263	2959.251465
5021.468112	0.087806	0.176263	3039.682129
5021.469031	0.087902	0.176263	3120.463623
5021.469935	0.087777	0.176263	3199.814209
5021.470831	0.087832	0.176263	3278.511719
5022.519776	1.024160	0.170108	464.968719
5022.520683	1.474768	0.170108	1802.583374
5022.521587	0.762338	0.170108	2491.736572
5022.522558	0.092996	0.170108	2582.035400
5022.523467	0.087697	0.170108	2661.751465
5022.524358	0.087777	0.170108	2739.960937
5022.525298	0.087894	0.170108	2822.581543
5022.526202	0.087828	0.170108	2901.978516
5022.527096	0.087799	0.170108	2980.470947
5022.527985	0.087832	0.170108	3058.553711
5022.528905	0.087935	0.170108	3139.453613
5022.529812	0.087726	0.170108	3219.020996
5022.530713	0.087891	0.170108	3298.210449
5023.530958	1.003191	0.177919	443.410370
5023.531917	1.476665	0.177919	1859.532227
5023.532846	0.686470	0.177919	2497.262695
5023.533741	0.093365	0.177919	2580.824707
5023.534665	0.087905	0.177919	2662.049072
5023.535571	0.088041	0.177919	2741.813965
5023.536461	0.087920	0.177919	2820.062744
5023.537345	0.087850	0.177919	2897.722412
5023.538293	0.088011	0.177919	2981.157227
5023.539195	0.087887	0.177919	3060.431152
5023.540096	0.087825	0.177919	3139.561279
5023.540986	0.087957	0.177919	3217.842529
5023.541940	0.087990	0.177919	3301.784424
5024.590285	0.992534	0.168166	433.737427
5024.591185	1.472545	0.168166	1759.028198
5024.592153	0.724464	0.168166	2460.309570
5024.593048	0.094797	0.168166	2545.153320
5024.593937	0.087858	0.168166	2623.258789
5024.594849	0.087850	0.168166	2703.378418
5024.595772	0.087920	0.168166	2784.528564
5024.596671	0.087836	0.168166	2863.492920
5024.597564	0.087858	0.168166	2941.949707
5024.598506	0.087836	0.168166	3024.690918
5024.599419	0.087832	0.168166	3104.881592
5024.600320	0.087814	0.168166	3184.001709
5024.601207	0.087920	0.168166	3261.986572
5025.602007	1.011061	0.179623	447.899963
5025.602922	1.474373	0.179623	1796.950928
5025.603827	0.777129	0.179623	2500.252441
5025.604761	0.094940	0.179623	2588.926514
5025.605669	0.087847	0.179623	2668.691406
5025.606579	0.087850	0.179623	2748.635254
5025.607468	0.087773	0.179623	2826.665771
5025.608415	0.087814	0.179623	2909.825439
5025.609322	0.087799	0.179623	2989.459229
5025.610213	0.087722	0.179623	3067.619629
5025.611149	0.087898	0.179623	3149.892090
5025.612038	0.087982	0.179623	3228.108154
5025.612940	0.087861	0.179623	3307.359131
5026.661322	0.994526	0.170748	435.602570
5026.662276	1.476738	0.170748	1844.410767
5026.663202	0.691480	0.170748	2484.720703
5026.664128	0.092640	0.170748	2570.505615
5026.665012	0.087806	0.170748	2648.126465
5026.665971	0.087788	0.170748	2732.315186
5026.666875	0.087869	0.170748	2811.748535
5026.667764	0.087810	0.170748	2889.811768
5026.668711	0.087909	0.170748	2973.061523
5026.669612	0.087733	0.170748	3052.109131
5026.670524	0.087839	0.170748	3132.218750
5026.671424	0.087755	0.170748	3211.198242
5026.672357	0.087916	0.170748	3293.224121
5027.673051	1.012328	0.177448	453.522888
5027.673945	1.473080	0.177448	1770.456299
5027.674911	0.720842	0.177448	2466.790039
5027.675819	0.094219	0.177448	2552.340576
5027.676706	0.087806	0.177448	2630.224854
5027.677637	0.087854	0.177448	2712.016846
5027.678545	0.087905	0.177448	2791.834717
5027.679450	0.087740	0.177448	2871.239746
5027.680337	0.087759	0.177448	2949.081787
5027.681285	0.087909	0.177448	3032.419434
5027.682181	0.087836	0.177448	3111.120117
5027.683077	0.087861	0.177448	3189.843750
5027.683962	0.087938	0.177448	3267.669189
5028.732869	0.988235	0.171216	427.905670
5028.733761	1.471915	0.171216	1740.854004
5028.734728	0.746239	0.171216	2462.467041
5028.735640	0.095039	0.171216	2549.142578
5028.736530	0.087740	0.171216	2627.231689
5028.737472	0.087876	0.171216	2710.010742
5028.738368	0.087810	0.171216	2788.688477
5028.739269	0.087843	0.171216	2867.834961
5028.740157	0.087898	0.171216	2945.888428
5028.741103	0.087968	0.171216	3029.105713
5028.742012	0.087894	0.171216	3109.001709
5028.742920	0.087938	0.171216	3188.849609
5028.743808	0.087821	0.171216	3266.834717
5029.743052	0.988894	0.177830	432.146698
5029.743948	1.472413	0.177830	1751.429077
5029.744925	0.719989	0.177830	2454.858398
5029.745838	0.094083	0.177830	2540.756348
5029.746737	0.087781	0.177830	2619.671143
5029.747630	0.087839	0.177830	2698.111572
5029.748573	0.087872	0.177830	2780.975098
5029.749466	0.087880	0.177830	2859.451660
5029.750354	0.087880	0.177830	2937.488770
5029.751282	0.087891	0.177830	3019.051270
5029.752197	0.087902	0.177830	3099.481201
5029.753097	0.087843	0.177830	3178.540039
5029.753982	0.087806	0.177830	3256.248779
5030.804442	1.008926	0.170555	446.954132
5030.805359	1.473995	0.170555	1798.607788
5030.806262	0.781505	0.170555	2504.306885
5030.807187	0.096991	0.170555	2594.023437
5030.808102	0.087905	0.170555	2674.456787
5030.809002	0.087839	0.170555	2753.512207
5030.809897	0.087876	0.170555	2832.161133
5030.810830	0.087993	0.170555	2914.258789
5030.811734	0.087960	0.170555	2993.774902
5030.812637	0.087898	0.170555	3073.146729
5030.813525	0.087931	0.170555	3151.229492
5030.814470	0.088033	0.170555	3234.421143
5030.815375	0.087876	0.170555	3313.948975
5031.813595	1.005608	0.178966	446.489929
5031.814488	1.473157	0.178966	1762.019043
5031.815480	0.695376	0.178966	2451.832031
5031.816375	0.093600	0.178966	2535.604004
5031.817259	0.087773	0.178966	2613.195801
5031.818197	0.087942	0.178966	2695.685303
5031.819104	0.087836	0.178966	2775.352295
5031.820022	0.087847	0.178966	2855.995605
5031.820920	0.087876	0.178966	2934.908203
5031.821876	0.087850	0.178966	3018.893066
5031.822793	0.087924	0.178966	3099.519043
5031.823688	0.087968	0.178966	3178.250000
5031.824598	0.088004	0.178966	3258.333740
5032.876488	0.992234	0.170684	433.606201
5032.877437	1.476295	0.170684	1834.610352
5032.878370	0.701788	0.170684	2489.378906
5032.879272	0.093560	0.170684	2573.769531
5032.880158	0.087711	0.170684	2651.481689
5032.881110	0.087913	0.170684	2735.174561
5032.882015	0.087883	0.170684	2814.708984
5032.882904	0.087946	0.170684	2892.892578
5032.883830	0.087781	0.170684	2974.177490
5032.884737	0.087854	0.170684	3053.861084
5032.885640	0.087766	0.170684	3133.113770
5032.886527	0.087924	0.170684	3211.102051
5032.887479	0.087931	0.170684	3294.812256
5033.883652	1.027907	0.180630	510.869537
5033.884572	1.477954	0.180630	1870.587158
5033.885488	0.680966	0.180630	2494.351562
5033.886376	0.093556	0.180630	2577.429199
5033.887336	0.087854	0.180630	2661.769043
5033.888239	0.087898	0.180630	2741.140869
5033.889140	0.087898	0.180630	2820.336914
5033.890027	0.087938	0.180630	2898.338135
5033.890964	0.087982	0.180630	2980.777344
5033.891876	0.087953	0.180630	3060.990479
5033.892773	0.087898	0.180630	3139.834961
5033.893705	0.087938	0.180630	3221.793457
5033.894611	0.087887	0.180630	3301.418945
5034.948057	1.011639	0.171119	450.179504
5034.948969	1.474167	0.171119	1794.620117
5034.949863	0.796209	0.171119	2506.430664
5034.950815	0.096442	0.171119	2598.243164
5034.951731	0.087686	0.171119	2678.563232
5034.952622	0.087894	0.171119	2756.876953
5034.953512	0.087850	0.171119	2835.063721
5034.954442	0.087924	0.171119	2916.832764
5034.955351	0.087806	0.171119	2996.648682
5034.956241	0.087898	0.171119	3074.877930
5034.957164	0.087843	0.171119	3155.957031
5034.958083	0.087832	0.171119	3236.674561
5034.958988	0.087744	0.171119	3316.083008
5035.953655	1.046151	0.179864	504.244873
5035.954581	1.477244	0.179864	1872.172485
5035.955490	0.702030	0.179864	2510.317871
5035.956381	0.094054	0.179864	2594.119873
5035.957337	0.087795	0.179864	2678.052246
5035.958247	0.087861	0.179864	2758.006104
5035.959134	0.087898	0.179864	2835.971680
5035.960069	0.087913	0.179864	2918.169922
5035.960975	0.087957	0.179864	2997.858643
5035.961876	0.087784	0.179864	3076.952393
5035.962777	0.087839	0.179864	3156.095703
5035.963716	0.087993	0.179864	3238.721191
5035.964618	0.087876	0.179864	3317.985352
5037.019605	0.996497	0.170942	440.451477
5037.020497	1.472567	0.170942	1753.981201
5037.021473	0.733206	0.170942	2469.589844
5037.022367	0.094329	0.170942	2553.919678
5037.023257	0.087719	0.170942	2631.989258
5037.024201	0.087905	0.170942	2714.971924
5037.025120	0.087700	0.170942	2795.568359
5037.026019	0.087843	0.170942	2874.539307
5037.026910	0.087850	0.170942	2952.813965
5037.027853	0.087799	0.170942	3035.608398
5037.028761	0.087773	0.170942	3115.306641
5037.029681	0.087843	0.170942	3196.122314
5037.030568	0.087872	0.170942	3274.064941
5038.023649	1.015814	0.180364	456.100555
5038.024556	1.474365	0.180364	1793.349854
5038.025463	0.778154	0.180364	2499.135742
5038.026362	0.096691	0.180364	2586.060547
5038.027307	0.087905	0.180364	2669.131104
5038.028213	0.087935	0.180364	2748.799805
5038.029111	0.087737	0.180364	2827.587402
5038.030046	0.087891	0.180364	2909.765137
5038.030953	0.087916	0.180364	2989.505127
5038.031850	0.087865	0.180364	3068.320068
5038.032738	0.087843	0.180364	3146.324707
5038.033686	0.087891	0.180364	3229.645020
5038.034598	0.087953	0.180364	3309.858154
5039.091150	0.996746	0.170402	437.571320
5039.092052	1.473424	0.170402	1766.599854
5039.092980	0.790140	0.170402	2499.850098
5039.093912	0.094512	0.170402	2587.935059
5039.094825	0.087711	0.170402	2668.015381
5039.095724	0.088019	0.170402	2747.144287
5039.096662	0.087916	0.170402	2829.609863
5039.097563	0.087876	0.170402	2908.786133
5039.098466	0.087993	0.170402	2988.243896
5039.099352	0.087836	0.170402	3066.066406
5039.100288	0.088022	0.170402	3148.455322
5039.101198	0.087740	0.170402	3228.299072
5039.102097	0.087854	0.170402	3307.279785
5040.094167	1.007003	0.180610	448.116425
5040.095078	1.474058	0.180610	1790.983032
5040.095976	0.798450	0.180610	2507.990723
5040.096917	0.096746	0.180610	2599.028320
5040.097830	0.087803	0.180610	2679.192139
5040.098721	0.088000	0.180610	2757.600586
5040.099610	0.087946	0.180610	2835.784180
5040.100551	0.087975	0.180610	2918.568604
5040.101447	0.087927	0.180610	2997.351318
5040.102354	0.087872	0.180610	3077.051514
5040.103241	0.087799	0.180610	3154.929199
5040.104197	0.087913	0.180610	3238.973633
5040.105095	0.087839	0.180610	3317.853271
5041.162696	1.003843	0.171010	435.667786
5041.163671	1.477504	0.171010	1876.233887
5041.164589	0.690967	0.171010	2510.541504
5041.165487	0.093329	0.171010	2594.350830
5041.166427	0.087920	0.171010	2676.995605
5041.167329	0.087990	0.171010	2756.362061
5041.168233	0.087953	0.171010	2835.871582
5041.169119	0.087876	0.171010	2913.729736
5041.170060	0.087931	0.171010	2996.472656
5041.170964	0.087975	0.171010	3076.001953
5041.171860	0.087927	0.171010	3154.784668
5041.172782	0.087843	0.171010	3235.775879
5041.173707	0.087953	0.171010	3317.132324
5042.164694	0.998624	0.180952	446.385040
5042.165593	1.473501	0.180952	1771.062378
5042.166488	0.813658	0.180952	2499.286621
5042.167438	0.095050	0.180952	2589.584229
5042.168337	0.087678	0.180952	2668.406982
5042.169256	0.087935	0.180952	2749.218750
5042.170143	0.087814	0.180952	2827.109619
5042.171108	0.087850	0.180952	2911.885254
5042.172007	0.087935	0.180952	2990.938477
5042.172897	0.087872	0.180952	3069.144775
5042.173831	0.087872	0.180952	3151.217529
5042.174748	0.087876	0.180952	3231.799805
5042.175667	0.087887	0.180952	3312.567871
5043.234263	1.010742	0.171369	456.855469
5043.235165	1.474102	0.171369	1786.495117
5043.236109	0.748876	0.171369	2493.433838
5043.237007	0.094973	0.171369	2578.719727
5043.237908	0.087825	0.171369	2657.849854
5043.238796	0.087872	0.171369	2735.880371
5043.239749	0.087850	0.171369	2819.601807
5043.240654	0.087902	0.171369	2899.152832
5043.241553	0.087916	0.171369	2978.189453
5043.242438	0.087869	0.171369	3055.953125
5043.243388	0.088037	0.171369	3139.588379
5043.244298	0.087916	0.171369	3219.592285
5043.245192	0.087869	0.171369	3298.146973
5044.235725	1.016279	0.180598	451.227966
5044.236697	1.477830	0.180598	1887.678223
5044.237614	0.682020	0.180598	2513.090820
5044.238504	0.093329	0.180598	2596.153564
5044.239445	0.087876	0.180598	2678.844971
5044.240352	0.087946	0.180598	2758.611572
5044.241252	0.087935	0.180598	2837.752686
5044.242138	0.087927	0.180598	2915.656250
5044.243084	0.088019	0.180598	2998.922119
5044.243989	0.087916	0.180598	3078.486328
5044.244876	0.087854	0.180598	3156.412842
5044.245786	0.087832	0.180598	3236.340088
5044.246718	0.087935	0.180598	3318.295166
5045.304782	1.003407	0.171067	445.512695
5045.305722	1.473091	0.171067	1830.218140
5045.306670	0.689180	0.171067	2483.560547
5045.307585	0.093054	0.171067	2568.705078
5045.308476	0.087850	0.171067	2646.979736
5045.309411	0.088015	0.171067	2729.273926
5045.310313	0.087982	0.171067	2808.633789
5045.311216	0.087887	0.171067	2887.995605
5045.312104	0.087993	0.171067	2966.133545
5045.313060	0.087927	0.171067	3050.191895
5045.313966	0.087825	0.171067	3129.760986
5045.314864	0.087814	0.171067	3208.617676
5045.315804	0.087931	0.171067	3291.272705
5046.306783	1.015550	0.181029	460.044373
5046.307679	1.473768	0.181029	1780.540771
5046.308578	0.798651	0.181029	2498.528076
5046.309521	0.094709	0.181029	2587.839111
5046.310433	0.087847	0.181029	2667.955322
5046.311331	0.087869	0.181029	2746.861328
5046.312243	0.087891	0.181029	2827.017578
5046.313164	0.087993	0.181029	2908.059326
5046.314071	0.087861	0.181029	2987.749512
5046.314963	0.087858	0.181029	3066.118652
5046.315896	0.087971	0.181029	3148.195801
5046.316794	0.087993	0.181029	3227.213623
5046.317690	0.087828	0.181029	3305.907959
5047.375307	0.994548	0.171095	435.612183
5047.376244	1.474651	0.171095	1817.359985
5047.377172	0.728943	0.171095	2493.818848
5047.378076	0.094442	0.171095	2579.194580
5047.378964	0.087704	0.171095	2657.075684
5047.379925	0.087953	0.171095	2741.598389
5047.380831	0.087854	0.171095	2821.194092
5047.381722	0.087865	0.171095	2899.481689
5047.382630	0.087898	0.171095	2979.292969
5047.383553	0.087887	0.171095	3060.412598
5047.384447	0.087817	0.171095	3138.921387
5047.385335	0.087839	0.171095	3216.922852
5047.386269	0.087957	0.171095	3299.074219
5048.377806	0.992315	0.180461	433.641449
5048.378742	1.472560	0.180461	1811.957520
5048.379680	0.723439	0.180461	2490.542969
5048.380587	0.094204	0.180461	2575.986084
5048.381477	0.087711	0.180461	2654.049072
5048.382411	0.088000	0.180461	2736.241455
5048.383315	0.087916	0.180461	2815.717773
5048.384217	0.087806	0.180461	2894.919189
5048.385105	0.087814	0.180461	2972.897705
5048.386058	0.087982	0.180461	3056.744629
5048.386962	0.087843	0.180461	3136.154785
5048.387857	0.087913	0.180461	3214.836670
5048.388780	0.087957	0.180461	3296.020508
5049.445836	0.998221	0.171369	438.219208
5049.446802	1.477031	0.171369	1865.031372
5049.447722	0.692629	0.171369	2502.250488
5049.448642	0.092688	0.171369	2587.523437
5049.449535	0.087777	0.171369	2665.908447
5049.450480	0.088011	0.171369	2749.079346
5049.451381	0.087913	0.171369	2828.288574
5049.452269	0.087924	0.171369	2906.364746
5049.453213	0.087913	0.171369	2989.354248
5049.454108	0.087883	0.171369	3068.009766
5049.455026	0.087894	0.171369	3148.696777
5049.455920	0.087894	0.171369	3227.274170
5049.456874	0.087828	0.171369	3311.062500
5050.449397	1.042086	0.180864	499.159302
5050.450319	1.476167	0.180864	1860.185303
5050.451220	0.723245	0.180864	2511.828613
5050.452149	0.093995	0.180864	2599.150391
5050.453051	0.087843	0.180864	2678.384766
5050.453954	0.087946	0.180864	2757.799561
5050.454847	0.087920	0.180864	2836.312012
5050.455804	0.087913	0.180864	2920.444336
5050.456711	0.087964	0.180864	3000.227539
5050.457603	0.087865	0.180864	3078.603027
5050.458507	0.087949	0.180864	3158.109131
5050.459423	0.087993	0.180864	3238.710937
5050.460340	0.087924	0.180864	3319.336914
5051.516370	1.007296	0.172891	449.254120
5051.517283	1.473948	0.172891	1794.968506
5051.518186	0.777455	0.172891	2497.010254
5051.519134	0.094332	0.172891	2586.437256
5051.520039	0.087832	0.172891	2665.925293
5051.520933	0.087828	0.172891	2744.443848
5051.521874	0.087946	0.172891	2827.200684
5051.522773	0.087960	0.172891	2906.276855
5051.523669	0.087766	0.172891	2984.915283
5051.524554	0.087880	0.172891	3062.688721
5051.525489	0.087964	0.172891	3144.935059
5051.526396	0.087927	0.172891	3224.685059
5051.527303	0.087858	0.172891	3304.372070
5052.520420	1.017719	0.181210	468.150543
5052.521317	1.474358	0.181210	1790.649658
5052.522267	0.738237	0.181210	2491.975098
5052.523178	0.093995	0.181210	2577.604980
5052.524082	0.087865	0.181210	2657.034912
5052.524968	0.087755	0.181210	2734.785889
5052.525907	0.087887	0.181210	2817.311768
5052.526826	0.087836	0.181210	2898.032715
5052.527725	0.087876	0.181210	2977.033203
5052.528611	0.087799	0.181210	3054.823242
5052.529558	0.087949	0.181210	3138.111084
5052.530463	0.087865	0.181210	3217.628906
5052.531351	0.087887	0.181210	3295.672607
5053.586903	1.000712	0.172654	442.314575
5053.587799	1.472516	0.172654	1761.688721
5053.588776	0.713954	0.172654	2459.221680
5053.589674	0.094028	0.172654	2543.659180
5053.590572	0.087762	0.172654	2622.469971
5053.591471	0.087821	0.172654	2701.421143
5053.592416	0.087946	0.172654	2784.529785
5053.593323	0.087905	0.172654	2864.259766
5053.594220	0.087876	0.172654	2943.084473
5053.595146	0.087865	0.172654	3024.447510
5053.596049	0.087964	0.172654	3103.878906
5053.596944	0.087814	0.172654	3182.472168
5053.597832	0.087883	0.172654	3260.512451
5054.591959	1.004308	0.178338	446.916992
5054.592899	1.473611	0.178338	1832.111206
5054.593819	0.703165	0.178338	2479.023193
5054.594751	0.092816	0.178338	2565.527832
5054.595639	0.087733	0.178338	2643.434814
5054.596573	0.087883	0.178338	2725.517822
5054.597476	0.087887	0.178338	2804.879639
5054.598403	0.087924	0.178338	2886.384766
5054.599291	0.087949	0.178338	2964.483643
5054.600251	0.087781	0.178338	3048.753174
5054.601166	0.087880	0.178338	3129.163086
5054.602057	0.087909	0.178338	3207.489990
5054.602993	0.087913	0.178338	3289.776123
5055.656908	0.993409	0.172682	435.113312
5055.657802	1.472417	0.172682	1751.454102
5055.658768	0.732239	0.172682	2458.796875
5055.659683	0.094343	0.172682	2545.120850
5055.660573	0.087817	0.172682	2623.278320
5055.661519	0.087935	0.172682	2706.464355
5055.662411	0.087938	0.172682	2784.905273
5055.663312	0.087869	0.172682	2864.074951
5055.664200	0.087905	0.172682	2942.134766
5055.665140	0.087975	0.172682	3024.831055
5055.666050	0.087766	0.172682	3104.698242
5055.666951	0.087905	0.172682	3183.900879
5055.667841	0.087913	0.172682	3262.143066
5056.663497	0.991849	0.181174	431.454468
5056.664391	1.471897	0.181174	1747.330322
5056.665374	0.715302	0.181174	2450.471680
5056.666282	0.093966	0.181174	2535.792969
5056.667180	0.087810	0.181174	2614.646484
5056.668105	0.087880	0.181174	2695.935059
5056.669000	0.087968	0.181174	2774.666016
5056.669902	0.087880	0.181174	2853.933350
5056.670787	0.087836	0.181174	2931.667969
5056.671744	0.087872	0.181174	3015.761719
5056.672638	0.087938	0.181174	3094.378418
5056.673533	0.087806	0.181174	3172.965088
5056.674423	0.087777	0.181174	3251.086670
5057.728461	0.999232	0.172340	440.661407
5057.729426	1.474548	0.172340	1863.600586
5057.730336	0.706941	0.172340	2506.916748
5057.731248	0.093256	0.172340	2591.965820
5057.732141	0.087762	0.172340	2670.337646
5057.733080	0.087825	0.172340	2752.804932
5057.734008	0.087854	0.172340	2834.333496
5057.734905	0.087810	0.172340	2913.099121
5057.735822	0.087828	0.172340	2993.637695
5057.736761	0.087781	0.172340	3076.063721
5057.737679	0.087708	0.172340	3156.579102
5057.738566	0.087920	0.172340	3234.563965
5057.739514	0.087836	0.172340	3317.832275
5058.734026	0.996464	0.182298	437.447510
5058.734996	1.477478	0.182298	1870.601196
5058.735925	0.678585	0.182298	2501.006836
5058.736823	0.092952	0.182298	2584.477539
5058.737749	0.087854	0.182298	2665.830322
5058.738655	0.087957	0.182298	2745.519043
5058.739561	0.087894	0.182298	2825.151367
5058.740447	0.087861	0.182298	2902.996582
5058.741377	0.087993	0.182298	2984.830322
5058.742286	0.087891	0.182298	3064.722900
5058.743194	0.087982	0.182298	3144.610840
5058.744085	0.087847	0.182298	3222.882324
5058.745037	0.087990	0.182298	3306.648437
5059.799514	1.013434	0.173161	459.085510
5059.800412	1.473757	0.173161	1782.519531
5059.801383	0.702638	0.173161	2464.781006
5059.802286	0.093713	0.173161	2549.404297
5059.803186	0.087762	0.173161	2628.390381
5059.804072	0.087942	0.173161	2706.306885
5059.805005	0.087894	0.173161	2788.312256
5059.805920	0.087799	0.173161	2868.648437
5059.806818	0.087847	0.173161	2947.534668
5059.807744	0.087817	0.173161	3028.853516
5059.808647	0.087953	0.173161	3108.274902
5059.809556	0.087832	0.173161	3188.114258
5059.810446	0.087821	0.173161	3266.274902
5060.805117	1.016045	0.181335	499.894135
5060.806048	1.477742	0.181335	1875.671631
5060.806971	0.662139	0.181335	2486.825684
5060.807861	0.092959	0.181335	2569.559082
5060.808793	0.087880	0.181335	2651.462891
5060.809707	0.087788	0.181335	2731.701172
5060.810626	0.087682	0.181335	2812.280762
5060.811512	0.087861	0.181335	2890.125977
5060.812463	0.087799	0.181335	2973.622803
5060.813357	0.087755	0.181335	3052.075928
5060.814242	0.087825	0.181335	3129.800781
5060.815179	0.087850	0.181335	3212.116455
5060.816092	0.087784	0.181335	3292.263672
5061.870540	1.010665	0.173318	445.703400
5061.871515	1.477815	0.173318	1886.572876
5061.872444	0.662278	0.173318	2501.829102
5061.873345	0.092336	0.173318	2585.024170
5061.874280	0.087784	0.173318	2667.102539
5061.875186	0.087814	0.173318	2746.661865
5061.876082	0.087803	0.173318	2825.333008
5061.876968	0.087689	0.173318	2903.025635
5061.877925	0.087865	0.173318	2987.112305
5061.878815	0.087828	0.173318	3065.279541
5061.879719	0.087755	0.173318	3144.610107
5061.880610	0.087814	0.173318	3222.852051
5061.881556	0.087858	0.173318	3305.965332
5062.875599	1.002971	0.180831	444.316223
5062.876500	1.473570	0.180831	1772.003174
5062.877448	0.760265	0.180831	2492.734375
5062.878345	0.095197	0.180831	2578.125732
5062.879238	0.087737	0.180831	2656.474609
5062.880124	0.087821	0.180831	2734.284180
5062.881076	0.087858	0.180831	2817.924561
5062.881974	0.087935	0.180831	2896.889893
5062.882880	0.087784	0.180831	2976.422607
5062.883769	0.087744	0.180831	3054.427246
5062.884723	0.087924	0.180831	3138.306396
5062.885629	0.087799	0.180831	3217.852295
5062.886522	0.087847	0.180831	3296.299316
5063.942103	1.006578	0.175292	450.947083
5063.943002	1.473560	0.175292	1775.677246
5063.943956	0.761836	0.175292	2502.468750
5063.944861	0.094746	0.175292	2588.213867
5063.945757	0.087612	0.175292	2666.714600
5063.946641	0.087759	0.175292	2744.293457
5063.947584	0.087777	0.175292	2827.067383
5063.948484	0.087971	0.175292	2906.241455
5063.949383	0.087828	0.175292	2985.199219
5063.950273	0.087876	0.175292	3063.408936
5063.951219	0.088015	0.175292	3146.671143
5063.952126	0.087946	0.175292	3226.437744
5063.953019	0.087839	0.175292	3304.878174
5064.946632	0.991132	0.182684	434.115631
5064.947592	1.476727	0.182684	1851.773804
5064.948516	0.697723	0.182684	2496.470215
5064.949419	0.093417	0.182684	2580.825439
5064.950309	0.087744	0.182684	2658.917725
5064.951264	0.087964	0.182684	2742.923340
5064.952173	0.087762	0.182684	2822.699463
5064.953066	0.087759	0.182684	2901.068115
5064.954006	0.088000	0.182684	2983.788574
5064.954903	0.087872	0.182684	3062.610107
5064.955799	0.087814	0.182684	3141.291260
5064.956685	0.087876	0.182684	3219.149414
5064.957626	0.087927	0.182684	3301.888916
5066.012625	0.999119	0.174084	441.610443
5066.013521	1.473069	0.174084	1761.480103
5066.014485	0.741859	0.174084	2476.632324
5066.015387	0.094622	0.174084	2561.980957
5066.016284	0.087850	0.174084	2640.782715
5066.017221	0.087982	0.174084	2723.221924
5066.018125	0.087894	0.174084	2802.678467
5066.019030	0.087847	0.174084	2882.179687
5066.019920	0.087828	0.174084	2960.346924
5066.020861	0.087982	0.174084	3043.138184
5066.021768	0.087828	0.174084	3122.798584
5066.022666	0.087828	0.174084	3201.668457
5066.023562	0.087847	0.174084	3280.379150
5067.017158	1.004377	0.181665	437.908539
5067.018130	1.477222	0.181665	1873.768066
5067.019050	0.689557	0.181665	2508.160400
5067.019936	0.093790	0.181665	2591.258545
5067.020885	0.087920	0.181665	2674.694580
5067.021798	0.087898	0.181665	2754.945312
5067.022693	0.087905	0.181665	2833.620605
5067.023576	0.087993	0.181665	2911.318604
5067.024511	0.087979	0.181665	2993.578613
5067.025424	0.087865	0.181665	3073.799316
5067.026327	0.087847	0.181665	3153.124756
5067.027219	0.087891	0.181665	3231.523193
5067.028167	0.087843	0.181665	3314.798340
5068.083714	1.040116	0.174164	513.817261
5068.084634	1.477339	0.174164	1872.968994
5068.085549	0.694285	0.174164	2508.239502
5068.086433	0.094069	0.174164	2591.396240
5068.087397	0.087938	0.174164	2676.168701
5068.088306	0.087880	0.174164	2756.051270
5068.089197	0.087891	0.174164	2834.361816
5068.090122	0.087865	0.174164	2915.636963
5068.091043	0.088008	0.174164	2996.692139
5068.091944	0.087751	0.174164	3075.756104
5068.092845	0.087968	0.174164	3155.014893
5068.093776	0.087788	0.174164	3236.745605
5068.094676	0.087843	0.174164	3315.804199
5069.087705	1.010002	0.181810	449.451111
5069.088607	1.473321	0.181810	1778.386963
5069.089506	0.808198	0.181810	2504.957031
5069.090471	0.094717	0.181810	2596.358643
5069.091360	0.087854	0.181810	2674.460937
5069.092262	0.087876	0.181810	2753.725098
5069.093158	0.087913	0.181810	2832.494873
5069.094108	0.087902	0.181810	2916.001465
5069.095016	0.087836	0.181810	2995.756348
5069.095913	0.087960	0.181810	3074.656738
5069.096841	0.087861	0.181810	3156.192139
5069.097735	0.087949	0.181810	3234.818848
5069.098635	0.087927	0.181810	3313.953369
5070.155230	1.006776	0.173661	454.056030
5070.156132	1.474156	0.173661	1783.745239
5070.157049	0.774313	0.173661	2493.790039
5070.157981	0.094442	0.173661	2581.810059
5070.158877	0.087832	0.173661	2660.507568
5070.159770	0.087920	0.173661	2739.020020
5070.160697	0.087949	0.173661	2820.548828
5070.161614	0.087920	0.173661	2901.171387
5070.162513	0.087887	0.173661	2980.181641
5070.163402	0.087913	0.173661	3058.335937
5070.164354	0.087986	0.173661	3142.098389
5070.165247	0.087949	0.173661	3220.636963
5070.166135	0.087865	0.173661	3298.661133
5071.157710	1.002730	0.183748	442.203735
5071.158612	1.473311	0.183748	1771.129883
5071.159511	0.808473	0.183748	2497.947021
5071.160466	0.094969	0.183748	2588.642822
5071.161373	0.087810	0.183748	2668.286621
5071.162262	0.087839	0.183748	2746.375732
5071.163188	0.087847	0.183748	2827.721680
5071.164096	0.087935	0.183748	2907.566162
5071.165003	0.087686	0.183748	2987.096924
5071.165897	0.087869	0.183748	3065.651611
5071.166829	0.088077	0.183748	3147.739746
5071.167745	0.087960	0.183748	3228.311279
5071.168651	0.087854	0.183748	3307.906982
5072.226272	1.026262	0.173931	470.028076
5072.227178	1.474523	0.173931	1805.945679
5072.228156	0.673773	0.173931	2464.895752
5072.229051	0.093230	0.173931	2548.336670
5072.229970	0.087861	0.173931	2629.081299
5072.230856	0.087916	0.173931	2706.975098
5072.231797	0.087927	0.173931	2789.714600
5072.232723	0.087799	0.173931	2871.016602
5072.233622	0.087839	0.173931	2949.984131
5072.234566	0.087865	0.173931	3032.928711
5072.235474	0.087839	0.173931	3112.686768
5072.236396	0.087916	0.173931	3193.745605
5072.237284	0.087891	0.173931	3271.792480
5073.228244	1.001283	0.183695	445.570892
5073.229140	1.472802	0.183695	1765.201172
5073.230111	0.723358	0.183695	2467.582031
5073.231017	0.094266	0.183695	2552.987305
5073.231911	0.087825	0.183695	2631.502686
5073.232799	0.087781	0.183695	2709.451904
5073.233755	0.088000	0.183695	2793.580322
5073.234660	0.087876	0.183695	2873.108154
5073.235557	0.087916	0.183695	2951.968994
5073.236482	0.087931	0.183695	3033.305176
5073.237387	0.087898	0.183695	3112.852783
5073.238283	0.087858	0.183695	3191.573242
5073.239170	0.087887	0.183695	3269.529053
5074.297820	1.012526	0.173866	459.686646
5074.298714	1.473618	0.173866	1777.101318
5074.299685	0.734363	0.173866	2490.167480
5074.300583	0.093772	0.173866	2574.374756
5074.301493	0.087847	0.173866	2654.315186
5074.302386	0.087916	0.173866	2732.824463
5074.303331	0.087905	0.173866	2815.895020
5074.304230	0.087931	0.173866	2894.944824
5074.305132	0.087957	0.173866	2974.281738
5074.306019	0.088015	0.173866	3052.351074
5074.306963	0.087894	0.173866	3135.323242
5074.307873	0.087913	0.173866	3215.323730
5074.308766	0.087931	0.173866	3293.845947
5075.299269	0.985679	0.184928	424.827545
5075.300185	1.471959	0.184928	1773.142212
5075.301138	0.731276	0.184928	2470.047852
5075.302031	0.094951	0.184928	2554.839355
5075.302916	0.087784	0.184928	2632.528564
5075.303853	0.087946	0.184928	2714.933594
5075.304749	0.087806	0.184928	2793.608154
5075.305642	0.087850	0.184928	2872.058594
5075.306577	0.087891	0.184928	2954.236328
5075.307490	0.087898	0.184928	3034.487061
5075.308397	0.087814	0.184928	3114.134033
5075.309292	0.087971	0.184928	3192.868164
5075.310202	0.087935	0.184928	3272.888672
5076.368325	0.986499	0.174128	425.181061
5076.369238	1.471769	0.174128	1768.906006
5076.370205	0.716224	0.174128	2461.495117
5076.371124	0.093497	0.174128	2547.419189
5076.372023	0.087770	0.174128	2626.324219
5076.372945	0.087946	0.174128	2707.409912
5076.373846	0.087891	0.174128	2786.599365
5076.374754	0.087828	0.174128	2866.347412
5076.375640	0.087913	0.174128	2944.238037
5076.376585	0.087902	0.174128	3027.305176
5076.377489	0.087821	0.174128	3106.695312
5076.378372	0.087883	0.174128	3184.296387
5076.379298	0.087905	0.174128	3265.696777
5077.370323	1.005425	0.183985	447.414062
5077.371229	1.473501	0.183985	1782.405884
5077.372130	0.801581	0.183985	2504.630371
5077.373098	0.093647	0.183985	2595.281006
5077.374004	0.087792	0.183985	2674.820312
5077.374901	0.087905	0.183985	2753.671387
5077.375823	0.087872	0.183985	2834.689697
5077.376741	0.087858	0.183985	2915.343018
5077.377648	0.087814	0.183985	2994.989990
5077.378535	0.087770	0.183985	3072.841797
5077.379464	0.087927	0.183985	3154.526123
5077.380377	0.087880	0.183985	3234.760254
5077.381279	0.087898	0.183985	3314.044189
5078.439949	1.080410	0.173617	546.687500
5078.440872	1.478042	0.173617	1910.920288
5078.441785	0.667998	0.173617	2520.802490
5078.442675	0.093124	0.173617	2603.682617
5078.443618	0.087832	0.173617	2686.508301
5078.444525	0.087792	0.173617	2766.135498
5078.445416	0.087854	0.173617	2844.413330
5078.446374	0.087898	0.173617	2928.619629
5078.447280	0.087858	0.173617	3008.218750
5078.448180	0.087861	0.173617	3087.293945
5078.449065	0.087861	0.173617	3165.051270
5078.450004	0.087953	0.173617	3247.638916
5078.450916	0.087876	0.173617	3327.781738
5079.441357	0.992260	0.184320	435.601959
5079.442280	1.472560	0.184320	1794.774658
5079.443212	0.736996	0.184320	2481.654785
5079.444124	0.094380	0.184320	2567.729248
5079.445017	0.087766	0.184320	2646.104492
5079.445947	0.087902	0.184320	2727.853027
5079.446852	0.087979	0.184320	2807.473633
5079.447758	0.087916	0.184320	2887.125732
5079.448647	0.087880	0.184320	2965.250732
5079.449596	0.088019	0.184320	3048.780518
5079.450509	0.087803	0.184320	3128.944336
5079.451401	0.087905	0.184320	3207.355957
5079.452331	0.087898	0.184320	3289.101074
5080.510414	0.997800	0.174616	439.032135
5080.511318	1.473442	0.174616	1771.024048
5080.512259	0.777627	0.174616	2502.770996
5080.513170	0.094966	0.174616	2589.284912
5080.514082	0.087689	0.174616	2669.257568
5080.514972	0.087872	0.174616	2747.463867
5080.515902	0.087946	0.174616	2829.253174
5080.516818	0.087894	0.174616	2909.764404
5080.517722	0.087836	0.174616	2989.167969
5080.518608	0.087880	0.174616	3067.029297
5080.519561	0.087938	0.174616	3150.834473
5080.520467	0.087876	0.174616	3230.450195
5080.521368	0.087814	0.174616	3309.570312
5081.511877	0.988162	0.184477	427.873962
5081.512830	1.473838	0.184477	1832.441406
5081.513765	0.700609	0.184477	2487.510986
5081.514664	0.093604	0.184477	2571.660645
5081.515551	0.087729	0.184477	2649.476807
5081.516510	0.087726	0.184477	2733.605957
5081.517415	0.087803	0.184477	2813.067383
5081.518306	0.087667	0.184477	2891.178955
5081.519224	0.087953	0.184477	2971.919678
5081.520135	0.087869	0.184477	3051.968018
5081.521028	0.087872	0.184477	3130.437988
5081.521919	0.087828	0.184477	3208.693115
5081.522859	0.087795	0.184477	3291.220703
5082.580941	0.996277	0.175196	437.365570
5082.581837	1.472747	0.175196	1756.946533
5082.582810	0.727427	0.175196	2464.732666
5082.583724	0.094255	0.175196	2550.882080
5082.584612	0.087766	0.175196	2628.818359
5082.585542	0.087938	0.175196	2710.600830
5082.586449	0.087880	0.175196	2790.307617
5082.587349	0.087938	0.175196	2869.452148
5082.588235	0.087916	0.175196	2947.345947
5082.589187	0.087850	0.175196	3030.979492
5082.590090	0.087828	0.175196	3110.288574
5082.590997	0.087905	0.175196	3190.018555
5082.591887	0.087872	0.175196	3268.224854
5083.583966	1.007194	0.184767	453.237152
5083.584864	1.473483	0.184767	1776.424561
5083.585758	0.807327	0.184767	2498.174561
5083.586706	0.097584	0.184767	2590.684326
5083.587613	0.087722	0.184767	2670.248291
5083.588520	0.087854	0.184767	2749.931885
5083.589412	0.087946	0.184767	2828.379395
5083.590364	0.087869	0.184767	2912.030273
5083.591267	0.087843	0.184767	2991.352539
5083.592191	0.087773	0.184767	3072.455078
5083.593080	0.087766	0.184767	3150.479248
5083.594027	0.087755	0.184767	3233.583252
5083.594948	0.087700	0.184767	3314.355225
5084.651471	1.007589	0.175280	449.384735
5084.652446	1.477342	0.175280	1889.793701
5084.653362	0.689293	0.175280	2521.186279
5084.654251	0.093457	0.175280	2604.269531
5084.655172	0.087700	0.175280	2685.041504
5084.656083	0.088019	0.175280	2765.226562
5084.656997	0.087781	0.175280	2845.458252
5084.657893	0.087913	0.175280	2924.228027
5084.658831	0.087905	0.175280	3006.683105
5084.659729	0.087777	0.175280	3085.506836
5084.660626	0.087905	0.175280	3164.357910
5084.661512	0.087891	0.175280	3242.229004
5084.662456	0.088048	0.175280	3325.346436
5085.655518	1.016957	0.184497	455.596649
5085.656428	1.474570	0.184497	1797.455688
5085.657346	0.761664	0.184497	2496.663086
5085.658235	0.096035	0.184497	2582.038330
5085.659184	0.087806	0.184497	2665.366699
5085.660094	0.087843	0.184497	2745.303955
5085.660990	0.087869	0.184497	2824.034180
5085.661928	0.087821	0.184497	2906.410400
5085.662830	0.087887	0.184497	2985.684326
5085.663728	0.087938	0.184497	3064.652832
5085.664616	0.087869	0.184497	3142.680176
5085.665550	0.087993	0.184497	3224.865723
5085.666453	0.088022	0.184497	3304.350098
5086.721488	1.001891	0.174954	446.843353
5086.722471	1.477855	0.174954	1899.575073
5086.723393	0.658147	0.174954	2506.386719
5086.724291	0.092688	0.174954	2589.620605
5086.725179	0.087839	0.174954	2667.622070
5086.726126	0.087957	0.174954	2750.916992
5086.727021	0.087854	0.174954	2829.546387
5086.727912	0.087931	0.174954	2907.892822
5086.728847	0.087938	0.174954	2990.114990
5086.729759	0.087953	0.174954	3070.328125
5086.730660	0.087839	0.174954	3149.471436
5086.731549	0.087828	0.174954	3227.550781
5086.732492	0.088114	0.174954	3310.642334
5087.727053	0.996024	0.184928	436.258606
5087.727950	1.472681	0.184928	1757.253174
5087.728927	0.716404	0.184928	2457.179687
5087.729843	0.093614	0.184928	2542.930664
5087.730735	0.087715	0.184928	2621.172363
5087.731670	0.087825	0.184928	2703.288574
5087.732570	0.087986	0.184928	2782.475830
5087.733467	0.087876	0.184928	2861.300537
5087.734354	0.087810	0.184928	2939.187988
5087.735289	0.087916	0.184928	3021.389648
5087.736196	0.087814	0.184928	3101.036621
5087.737103	0.087770	0.184928	3180.643799
5087.737992	0.087825	0.184928	3258.719971
5088.792035	1.020172	0.176883	462.137970
5088.792960	1.475002	0.176883	1826.515137
5088.793859	0.755845	0.176883	2506.019531
5088.794798	0.095599	0.176883	2595.787354
5088.795705	0.087876	0.176883	2675.490967
5088.796601	0.087880	0.176883	2754.231201
5088.797490	0.087806	0.176883	2832.291016
5088.798431	0.087924	0.176883	2915.027100
5088.799332	0.087979	0.176883	2994.295654
5088.800239	0.087883	0.176883	3074.005859
5088.801122	0.087872	0.176883	3151.597168
5088.802065	0.087982	0.176883	3234.564453
5088.802973	0.087920	0.176883	3314.395752
5089.798675	1.051318	0.184662	537.223633
5089.799610	1.478947	0.184662	1920.038696
5089.800522	0.641960	0.184662	2505.506592
5089.801410	0.092600	0.184662	2587.735596
5089.802352	0.087916	0.184662	2670.552734
5089.803247	0.087869	0.184662	2749.195068
5089.804130	0.087861	0.184662	2826.776611
5089.805046	0.087810	0.184662	2907.210693
5089.805962	0.087876	0.184662	2987.705078
5089.806867	0.087843	0.184662	3067.203125
5089.807757	0.087850	0.184662	3145.389893
5089.808696	0.087773	0.184662	3227.809082
5089.809610	0.087810	0.184662	3308.067383
5090.862046	1.016400	0.175804	456.363708
5090.862966	1.474937	0.175804	1813.305420
5090.863866	0.770339	0.175804	2506.610840
5090.864804	0.095479	0.175804	2596.169678
5090.865705	0.087971	0.175804	2675.431641
5090.866601	0.087927	0.175804	2754.214355
5090.867491	0.087825	0.175804	2832.378418
5090.868422	0.087993	0.175804	2914.300049
5090.869328	0.088015	0.175804	2994.041748
5090.870225	0.087836	0.175804	3072.830322
5090.871141	0.087891	0.175804	3153.338135
5090.872066	0.087931	0.175804	3234.674316
5090.872977	0.087814	0.175804	3314.672607
5091.870156	0.994021	0.185202	435.381195
5091.871102	1.473234	0.185202	1829.060181
5091.872023	0.737820	0.185202	2508.592285
5091.872928	0.094296	0.185202	2593.929932
5091.873824	0.087740	0.185202	2672.545410
5091.874755	0.087869	0.185202	2754.351074
5091.875666	0.087854	0.185202	2834.385986
5091.876566	0.087887	0.185202	2913.484375
5091.877453	0.087872	0.185202	2991.427246
5091.878410	0.087949	0.185202	3075.594727
5091.879313	0.087843	0.185202	3154.916992
5091.880203	0.087880	0.185202	3233.129883
5091.881134	0.087854	0.185202	3314.921875
5092.932581	1.018575	0.176863	465.488983
5092.933485	1.474383	0.176863	1798.331665
5092.934385	0.779875	0.176863	2500.219727
5092.935329	0.093959	0.176863	2588.916748
5092.936235	0.087704	0.176863	2668.376465
5092.937129	0.087880	0.176863	2746.940918
5092.938047	0.087942	0.176863	2827.671631
5092.938967	0.087905	0.176863	2908.544434
5092.939871	0.087909	0.176863	2988.014160
5092.940761	0.087817	0.176863	3066.171631
5092.941720	0.087803	0.176863	3150.374512
5092.942618	0.087832	0.176863	3229.247559
5092.943514	0.087836	0.176863	3307.948242
